title:demo marker, start timestamp:1598856688.836416, stop timestamp:1598856719.972776, headset type:EPOCPLUS, headset serial:3B9ADC97, headset firmware:625, subject name:deltaphase, channels:165, sampling rate:eeg_128;mot_64;pm_0.1;pow_8, samples:3953      , version:2.0
Timestamp,EEG.Counter,EEG.Interpolated,EEG.AF3,EEG.F7,EEG.F3,EEG.FC5,EEG.T7,EEG.P7,EEG.O1,EEG.O2,EEG.P8,EEG.T8,EEG.FC6,EEG.F4,EEG.F8,EEG.AF4,EEG.RawCq,EEG.Battery,MarkerIndex,MarkerType,MarkerValueInt,EEG.MarkerHardware,CQ.AF3,CQ.F7,CQ.F3,CQ.FC5,CQ.T7,CQ.P7,CQ.O1,CQ.O2,CQ.P8,CQ.T8,CQ.FC6,CQ.F4,CQ.F8,CQ.AF4,CQ.Overall,MOT.CounterMems,MOT.InterpolatedMems,MOT.GyroX,MOT.GyroY,MOT.GyroZ,MOT.AccX,MOT.AccY,MOT.AccZ,MOT.MagX,MOT.MagY,MOT.MagZ,PM.AuditoryAttention.IsActive,PM.AuditoryAttention.Scaled,PM.AuditoryAttention.Raw,PM.AuditoryAttention.Min,PM.AuditoryAttention.Max,PM.VisualAttention.IsActive,PM.VisualAttention.Scaled,PM.VisualAttention.Raw,PM.VisualAttention.Min,PM.VisualAttention.Max,PM.CognitiveStress.IsActive,PM.CognitiveStress.Scaled,PM.CognitiveStress.Raw,PM.CognitiveStress.Min,PM.CognitiveStress.Max,PM.Engagement.IsActive,PM.Engagement.Scaled,PM.Engagement.Raw,PM.Engagement.Min,PM.Engagement.Max,PM.Excitement.IsActive,PM.Excitement.Scaled,PM.Excitement.Raw,PM.Excitement.Min,PM.Excitement.Max,PM.LongTermExcitement,PM.Stress.IsActive,PM.Stress.Scaled,PM.Stress.Raw,PM.Stress.Min,PM.Stress.Max,PM.Relaxation.IsActive,PM.Relaxation.Scaled,PM.Relaxation.Raw,PM.Relaxation.Min,PM.Relaxation.Max,PM.Interest.IsActive,PM.Interest.Scaled,PM.Interest.Raw,PM.Interest.Min,PM.Interest.Max,PM.Focus.IsActive,PM.Focus.Scaled,PM.Focus.Raw,PM.Focus.Min,PM.Focus.Max,POW.AF3.Theta,POW.AF3.Alpha,POW.AF3.BetaL,POW.AF3.BetaH,POW.AF3.Gamma,POW.F7.Theta,POW.F7.Alpha,POW.F7.BetaL,POW.F7.BetaH,POW.F7.Gamma,POW.F3.Theta,POW.F3.Alpha,POW.F3.BetaL,POW.F3.BetaH,POW.F3.Gamma,POW.FC5.Theta,POW.FC5.Alpha,POW.FC5.BetaL,POW.FC5.BetaH,POW.FC5.Gamma,POW.T7.Theta,POW.T7.Alpha,POW.T7.BetaL,POW.T7.BetaH,POW.T7.Gamma,POW.P7.Theta,POW.P7.Alpha,POW.P7.BetaL,POW.P7.BetaH,POW.P7.Gamma,POW.O1.Theta,POW.O1.Alpha,POW.O1.BetaL,POW.O1.BetaH,POW.O1.Gamma,POW.O2.Theta,POW.O2.Alpha,POW.O2.BetaL,POW.O2.BetaH,POW.O2.Gamma,POW.P8.Theta,POW.P8.Alpha,POW.P8.BetaL,POW.P8.BetaH,POW.P8.Gamma,POW.T8.Theta,POW.T8.Alpha,POW.T8.BetaL,POW.T8.BetaH,POW.T8.Gamma,POW.FC6.Theta,POW.FC6.Alpha,POW.FC6.BetaL,POW.FC6.BetaH,POW.FC6.Gamma,POW.F4.Theta,POW.F4.Alpha,POW.F4.BetaL,POW.F4.BetaH,POW.F4.Gamma,POW.F8.Theta,POW.F8.Alpha,POW.F8.BetaL,POW.F8.BetaH,POW.F8.Gamma,POW.AF4.Theta,POW.AF4.Alpha,POW.AF4.BetaL,POW.AF4.BetaH,POW.AF4.Gamma
1598856688.836416,57.000000,0.000000,4215.897461,4215.897461,4217.179688,4216.538574,4211.282227,4214.615234,4209.487305,4217.307617,4217.436035,4220.512695,4271.410156,4955.897461,4219.230957,4220.769043,0.000000,2.000000,,,,0.000000,0.000000,0.000000,0.000000,0.000000,0.000000,0.000000,0.000000,0.000000,0.000000,0.000000,0.000000,0.000000,0.000000,0.000000,0.000000,,,,,,,,,,,,,,,,,,,,,,,,,,,,,,,,,,,,,,,,,,,,,,,,,,,,,,,,,,,,,,,,,,,,,,,,,,,,,,,,,,,,,,,,,,,,,,,,,,,,,,,,,,,,,,,,,,,,,,,,,,,,,,,
1598856688.844197,58.000000,0.000000,4216.794922,4216.282227,4218.077148,4218.846191,4212.307617,4215.512695,4209.230957,4216.922852,4217.051270,4221.282227,4268.589844,4957.948730,4218.846191,4223.461426,0.000000,2.000000,,,,0.000000,0.000000,0.000000,0.000000,0.000000,0.000000,0.000000,0.000000,0.000000,0.000000,0.000000,0.000000,0.000000,0.000000,0.000000,0.000000,29.000000,0.000000,8213.000000,8093.000000,8198.000000,12210.000000,7809.000000,8677.000000,8125.000000,8290.000000,7575.000000,,,,,,,,,,,,,,,,,,,,,,,,,,,,,,,,,,,,,,,,,,,,,,,,,,,,,,,,,,,,,,,,,,,,,,,,,,,,,,,,,,,,,,,,,,,,,,,,,,,,,,,,,,,,,,,,,,,,
1598856688.852078,59.000000,0.000000,4216.666504,4215.897461,4217.179688,4217.051270,4214.615234,4212.692383,4212.563965,4216.282227,4218.077148,4222.436035,4268.205078,4958.717773,4216.794922,4221.794922,0.000000,2.000000,,,,0.000000,0.000000,0.000000,0.000000,0.000000,0.000000,0.000000,0.000000,0.000000,0.000000,0.000000,0.000000,0.000000,0.000000,0.000000,0.000000,,,,,,,,,,,,,,,,,,,,,,,,,,,,,,,,,,,,,,,,,,,,,,,,,,,,,,,,,,,,,,,,,,,,,,,,,,,,,,,,,,,,,,,,,,,,,,,,,,,,,,,,,,,,,,,,,,,,,,,,,,,,,,,
1598856688.859959,60.000000,0.000000,4216.794922,4215.897461,4218.589844,4215.641113,4211.538574,4212.179688,4213.717773,4216.666504,4218.589844,4220.256348,4269.743652,4956.794922,4215.897461,4220.512695,0.000000,2.000000,,,,0.000000,0.000000,0.000000,0.000000,0.000000,0.000000,0.000000,0.000000,0.000000,0.000000,0.000000,0.000000,0.000000,0.000000,0.000000,0.000000,30.000000,0.000000,8209.000000,8094.000000,8200.000000,12213.000000,7838.000000,8678.000000,8128.000000,8286.000000,7573.000000,,,,,,,,,,,,,,,,,,,,,,,,,,,,,,,,,,,,,,,,,,,,,,,,,,,,,,,,,,,,,,,,,,,,,,,,,,,,,,,,,,,,,,,,,,,,,,,,,,,,,,,,,,,,,,,,,,,,
1598856688.867840,61.000000,0.000000,4216.666504,4216.794922,4217.436035,4215.897461,4211.282227,4216.025879,4211.410156,4216.538574,4216.282227,4220.000000,4271.666504,4957.436035,4217.307617,4223.717773,0.000000,2.000000,,,,0.000000,0.000000,0.000000,0.000000,0.000000,0.000000,0.000000,0.000000,0.000000,0.000000,0.000000,0.000000,0.000000,0.000000,0.000000,0.000000,,,,,,,,,,,,,,,,,,,,,,,,,,,,,,,,,,,,,,,,,,,,,,,,,,,,,,,,,,,,,,,,,,,,,,,,,,,,,,,,,,,,,,,,,,,,,,,,,,,,,,,,,,,,,,,,,,,,,,,,,,,,,,,
1598856688.875721,62.000000,0.000000,4215.641113,4217.051270,4214.615234,4215.641113,4213.461426,4216.153809,4211.922852,4216.025879,4215.641113,4221.025879,4270.897461,4956.794922,4218.205078,4223.589844,0.000000,2.000000,,,,0.000000,0.000000,0.000000,0.000000,0.000000,0.000000,0.000000,0.000000,0.000000,0.000000,0.000000,0.000000,0.000000,0.000000,0.000000,0.000000,31.000000,0.000000,8209.000000,8096.000000,8204.000000,12221.000000,7802.000000,8666.000000,8128.000000,8290.000000,7574.000000,,,,,,,,,,,,,,,,,,,,,,,,,,,,,,,,,,,,,,,,,,,,,,,,,,,,,,,,,,,,,,,,,,,,,,,,,,,,,,,,,,,,,,,,,,,,,,,,,,,,,,,,,,,,,,,,,,,,
1598856688.883601,63.000000,0.000000,4215.384766,4215.897461,4215.000000,4214.871582,4211.666504,4210.897461,4212.051270,4215.769043,4217.436035,4218.846191,4269.102539,4956.666504,4219.615234,4222.436035,0.000000,2.000000,,,,0.000000,0.000000,0.000000,0.000000,0.000000,0.000000,0.000000,0.000000,0.000000,0.000000,0.000000,0.000000,0.000000,0.000000,0.000000,0.000000,,,,,,,,,,,,,,,,,,,,,,,,,,,,,,,,,,,,,,,,,,,,,,,,,,,,,,,,,,,,,,,,,,,,,,,,,,,,,,,,,,,,,,,,,,,,,,,,,,,,,,,,,,,,,,,,,,,,,,,,,,,,,,,
1598856688.891482,64.000000,0.000000,4215.769043,4215.512695,4215.512695,4214.743652,4215.000000,4211.282227,4212.051270,4215.897461,4218.077148,4219.487305,4269.615234,4957.692383,4217.307617,4223.205078,0.000000,2.000000,,,,0.000000,0.000000,0.000000,0.000000,0.000000,0.000000,0.000000,0.000000,0.000000,0.000000,0.000000,0.000000,0.000000,0.000000,0.000000,0.000000,32.000000,0.000000,8204.000000,8091.000000,8201.000000,12216.000000,7812.000000,8678.000000,8130.000000,8289.000000,7574.000000,,,,,,,,,,,,,,,,,,,,,,,,,,,,,,,,,,,,,,,,,,,,,,,,,,,,,,,,,,,,,,,,,,,,,,,,,,,,,,,,,,,,,,,,,,,,,,,,,,,,,,,,,,,,,,,,,,,,
1598856688.899363,65.000000,0.000000,4215.512695,4215.897461,4215.769043,4215.641113,4218.461426,4214.230957,4212.692383,4216.922852,4215.256348,4223.974121,4270.384766,4959.487305,4216.410156,4226.025879,0.000000,2.000000,,,,0.000000,0.000000,0.000000,0.000000,0.000000,0.000000,0.000000,0.000000,0.000000,0.000000,0.000000,0.000000,0.000000,0.000000,0.000000,0.000000,,,,,,,,,,,,,,,,,,,,,,,,,,,,,,,,,,,,,,,,,,,,,,,,,,,,,,,,,,,,,,,,,,,,,,,,,,,,,,,,,,,,,,,,,,,,,,,,,,,,,,,,,,,,,,,,,,,,,,,,,,,,,,,
1598856688.907244,66.000000,0.000000,4215.512695,4216.025879,4216.282227,4215.256348,4212.563965,4214.230957,4211.666504,4217.692383,4217.051270,4224.358887,4269.615234,4958.205078,4218.205078,4225.000000,0.000000,2.000000,,,,0.000000,0.000000,0.000000,0.000000,0.000000,0.000000,0.000000,0.000000,0.000000,0.000000,0.000000,0.000000,0.000000,0.000000,0.000000,0.000000,33.000000,0.000000,8210.000000,8101.000000,8197.000000,12222.000000,7799.000000,8672.000000,8135.000000,8286.000000,7572.000000,,,,,,,,,,,,,,,,,,,,,,,,,,,,,,,,,,,,,,,,,,,,,,,,,,,,,,,,,,,,,,,,,,,,,,,,,,,,,,,,,,,,,,,,,,,,,,,,,,,,,,,,,,,,,,,,,,,,
1598856688.915125,67.000000,0.000000,4215.641113,4215.897461,4216.538574,4215.769043,4209.102539,4215.769043,4212.051270,4217.692383,4222.307617,4221.922852,4270.384766,4957.820313,4218.077148,4221.410156,0.000000,2.000000,,,,0.000000,0.000000,0.000000,0.000000,0.000000,0.000000,0.000000,0.000000,0.000000,0.000000,0.000000,0.000000,0.000000,0.000000,0.000000,0.000000,,,,,,,,,,,,,,,,,,,,,,,,,,,,,,,,,,,,,,,,,,,,,,,,,,,,,,,,,,,,,,,,,,,,,,,,,,,,,,,,,,,,,,,,,,,,,,,,,,,,,,,,,,,,,,,,,,,,,,,,,,,,,,,
1598856688.922906,68.000000,0.000000,4215.641113,4215.256348,4213.717773,4215.897461,4213.589844,4217.692383,4213.461426,4217.563965,4221.153809,4221.922852,4271.538574,4957.820313,4218.717773,4220.000000,0.000000,2.000000,,,,0.000000,0.000000,0.000000,0.000000,0.000000,0.000000,0.000000,0.000000,0.000000,0.000000,0.000000,0.000000,0.000000,0.000000,0.000000,0.000000,34.000000,0.000000,8204.000000,8101.000000,8197.000000,12217.000000,7807.000000,8679.000000,8128.000000,8290.000000,7571.000000,,,,,,,,,,,,,,,,,,,,,,,,,,,,,,,,,,,,,,,,,,,,,,,,,,,,,,,,,,,,,,,,,,,,,,,,,,,,,,,,,,,,,,,,,,,,,,,,,,,,,,,,,,,,,,,,,,,,
1598856688.930787,69.000000,0.000000,4215.641113,4214.615234,4215.384766,4216.922852,4215.000000,4215.256348,4212.307617,4217.692383,4216.410156,4221.025879,4271.282227,4957.948730,4220.256348,4220.384766,0.000000,2.000000,,,,0.000000,0.000000,0.000000,0.000000,0.000000,0.000000,0.000000,0.000000,0.000000,0.000000,0.000000,0.000000,0.000000,0.000000,0.000000,0.000000,,,,,,,,,,,,,,,,,,,,,,,,,,,,,,,,,,,,,,,,,,,,,,,,,,,,,,,,,,0.006942,0.005281,0.007660,0.003114,0.006441,0.012530,0.011651,0.005485,0.005754,0.007876,0.016267,0.036794,0.019567,0.011156,0.022094,0.012324,0.040435,0.023381,0.019298,0.014002,0.039170,0.024032,0.019193,0.017974,0.016594,0.025779,0.021514,0.016419,0.030576,0.038825,0.023991,0.036588,0.038818,0.029434,0.020572,0.009149,0.006889,0.001325,0.001045,0.000507,0.010808,0.013308,0.014763,0.017077,0.022323,0.017970,0.040867,0.012741,0.016692,0.024030,0.006106,0.007014,0.003071,0.017252,0.019017,0.022569,0.026989,0.026835,0.022729,0.016414,0.011391,0.025622,0.036003,0.033506,0.030403,0.019414,0.012531,0.027559,0.026935,0.028935
1598856688.938667,70.000000,0.000000,4215.641113,4214.102539,4217.436035,4216.025879,4212.436035,4214.230957,4211.025879,4217.692383,4215.641113,4220.769043,4270.128418,4957.051270,4219.487305,4219.743652,0.000000,2.000000,,,,0.000000,0.000000,0.000000,0.000000,0.000000,0.000000,0.000000,0.000000,0.000000,0.000000,0.000000,0.000000,0.000000,0.000000,0.000000,0.000000,35.000000,0.000000,8201.000000,8091.000000,8195.000000,12216.000000,7811.000000,8683.000000,8128.000000,8288.000000,7575.000000,,,,,,,,,,,,,,,,,,,,,,,,,,,,,,,,,,,,,,,,,,,,,,,,,,,,,,,,,,,,,,,,,,,,,,,,,,,,,,,,,,,,,,,,,,,,,,,,,,,,,,,,,,,,,,,,,,,,
1598856688.946548,71.000000,0.000000,4216.282227,4215.641113,4216.794922,4215.512695,4213.589844,4214.358887,4210.897461,4217.563965,4216.025879,4221.410156,4270.641113,4956.922852,4213.717773,4220.256348,0.000000,2.000000,,,,0.000000,0.000000,0.000000,0.000000,0.000000,0.000000,0.000000,0.000000,0.000000,0.000000,0.000000,0.000000,0.000000,0.000000,0.000000,0.000000,,,,,,,,,,,,,,,,,,,,,,,,,,,,,,,,,,,,,,,,,,,,,,,,,,,,,,,,,,,,,,,,,,,,,,,,,,,,,,,,,,,,,,,,,,,,,,,,,,,,,,,,,,,,,,,,,,,,,,,,,,,,,,,
1598856688.954429,72.000000,0.000000,4215.897461,4216.794922,4215.641113,4217.692383,4211.922852,4211.794922,4211.666504,4217.563965,4215.897461,4221.794922,4271.410156,4956.025879,4211.922852,4222.179688,0.000000,2.000000,1,1,,0.000000,0.000000,0.000000,0.000000,0.000000,0.000000,0.000000,0.000000,0.000000,0.000000,0.000000,0.000000,0.000000,0.000000,0.000000,0.000000,36.000000,0.000000,8201.000000,8095.000000,8196.000000,12217.000000,7821.000000,8675.000000,8133.000000,8289.000000,7573.000000,,,,,,,,,,,,,,,,,,,,,,,,,,,,,,,,,,,,,,,,,,,,,,,,,,,,,,,,,,,,,,,,,,,,,,,,,,,,,,,,,,,,,,,,,,,,,,,,,,,,,,,,,,,,,,,,,,,,
1598856688.962309,73.000000,0.000000,4215.128418,4215.256348,4216.153809,4217.692383,4209.102539,4214.487305,4211.794922,4217.563965,4217.307617,4221.410156,4270.000000,4955.000000,4214.230957,4221.153809,0.000000,2.000000,,,,0.000000,0.000000,0.000000,0.000000,0.000000,0.000000,0.000000,0.000000,0.000000,0.000000,0.000000,0.000000,0.000000,0.000000,0.000000,0.000000,,,,,,,,,,,,,,,,,,,,,,,,,,,,,,,,,,,,,,,,,,,,,,,,,,,,,,,,,,,,,,,,,,,,,,,,,,,,,,,,,,,,,,,,,,,,,,,,,,,,,,,,,,,,,,,,,,,,,,,,,,,,,,,
1598856688.970190,74.000000,0.000000,4215.256348,4213.974121,4213.846191,4214.230957,4210.641113,4217.179688,4209.358887,4217.563965,4217.820313,4221.794922,4270.256348,4955.256348,4217.307617,4220.897461,0.000000,2.000000,,,,0.000000,0.000000,0.000000,0.000000,0.000000,0.000000,0.000000,0.000000,0.000000,0.000000,0.000000,0.000000,0.000000,0.000000,0.000000,0.000000,37.000000,0.000000,8207.000000,8093.000000,8195.000000,12210.000000,7796.000000,8680.000000,8130.000000,8284.000000,7575.000000,,,,,,,,,,,,,,,,,,,,,,,,,,,,,,,,,,,,,,,,,,,,,,,,,,,,,,,,,,,,,,,,,,,,,,,,,,,,,,,,,,,,,,,,,,,,,,,,,,,,,,,,,,,,,,,,,,,,
1598856688.978071,75.000000,0.000000,4216.794922,4214.871582,4213.205078,4215.000000,4213.589844,4213.717773,4209.615234,4217.563965,4216.538574,4220.384766,4269.743652,4956.153809,4216.922852,4221.410156,0.000000,2.000000,,,,0.000000,0.000000,0.000000,0.000000,0.000000,0.000000,0.000000,0.000000,0.000000,0.000000,0.000000,0.000000,0.000000,0.000000,0.000000,0.000000,,,,,,,,,,,,,,,,,,,,,,,,,,,,,,,,,,,,,,,,,,,,,,,,,,,,,,,,,,,,,,,,,,,,,,,,,,,,,,,,,,,,,,,,,,,,,,,,,,,,,,,,,,,,,,,,,,,,,,,,,,,,,,,
1598856688.985951,76.000000,0.000000,4217.436035,4215.641113,4216.410156,4216.410156,4213.461426,4213.846191,4211.410156,4217.563965,4216.282227,4218.974121,4268.846191,4956.282227,4216.666504,4221.538574,0.000000,2.000000,,,,0.000000,0.000000,0.000000,0.000000,0.000000,0.000000,0.000000,0.000000,0.000000,0.000000,0.000000,0.000000,0.000000,0.000000,0.000000,0.000000,38.000000,0.000000,8206.000000,8091.000000,8201.000000,12221.000000,7784.000000,8670.000000,8127.000000,8288.000000,7572.000000,,,,,,,,,,,,,,,,,,,,,,,,,,,,,,,,,,,,,,,,,,,,,,,,,,,,,,,,,,,,,,,,,,,,,,,,,,,,,,,,,,,,,,,,,,,,,,,,,,,,,,,,,,,,,,,,,,,,
1598856688.993732,77.000000,0.000000,4216.282227,4215.512695,4218.974121,4216.025879,4212.692383,4216.153809,4211.025879,4217.563965,4215.897461,4218.461426,4268.461426,4958.077148,4217.948730,4219.615234,0.000000,2.000000,,,,0.000000,0.000000,0.000000,0.000000,0.000000,0.000000,0.000000,0.000000,0.000000,0.000000,0.000000,0.000000,0.000000,0.000000,0.000000,0.000000,,,,,,,,,,,,,,,,,,,,,,,,,,,,,,,,,,,,,,,,,,,,,,,,,,,,,,,,,,,,,,,,,,,,,,,,,,,,,,,,,,,,,,,,,,,,,,,,,,,,,,,,,,,,,,,,,,,,,,,,,,,,,,,
1598856689.001612,78.000000,0.000000,4215.128418,4215.897461,4216.153809,4214.358887,4212.820313,4212.692383,4209.102539,4217.563965,4217.563965,4219.487305,4269.743652,4961.025879,4219.615234,4221.282227,0.000000,2.000000,,,,0.000000,0.000000,0.000000,0.000000,0.000000,0.000000,0.000000,0.000000,0.000000,0.000000,0.000000,0.000000,0.000000,0.000000,0.000000,0.000000,39.000000,0.000000,8205.000000,8095.000000,8197.000000,12219.000000,7807.000000,8679.000000,8128.000000,8292.000000,7574.000000,,,,,,,,,,,,,,,,,,,,,,,,,,,,,,,,,,,,,,,,,,,,,,,,,,,,,,,,,,,,,,,,,,,,,,,,,,,,,,,,,,,,,,,,,,,,,,,,,,,,,,,,,,,,,,,,,,,,
1598856689.009493,79.000000,0.000000,4215.641113,4215.769043,4214.743652,4214.743652,4211.282227,4211.025879,4210.897461,4217.563965,4218.846191,4221.282227,4269.743652,4959.615234,4218.974121,4223.077148,0.000000,2.000000,,,,0.000000,0.000000,0.000000,0.000000,0.000000,0.000000,0.000000,0.000000,0.000000,0.000000,0.000000,0.000000,0.000000,0.000000,0.000000,0.000000,,,,,,,,,,,,,,,,,,,,,,,,,,,,,,,,,,,,,,,,,,,,,,,,,,,,,,,,,,,,,,,,,,,,,,,,,,,,,,,,,,,,,,,,,,,,,,,,,,,,,,,,,,,,,,,,,,,,,,,,,,,,,,,
1598856689.017373,80.000000,0.000000,4217.307617,4216.282227,4217.051270,4217.307617,4210.897461,4210.512695,4212.436035,4217.563965,4217.436035,4223.205078,4269.487305,4957.820313,4217.820313,4222.307617,0.000000,2.000000,,,,0.000000,0.000000,0.000000,0.000000,0.000000,0.000000,0.000000,0.000000,0.000000,0.000000,0.000000,0.000000,0.000000,0.000000,0.000000,0.000000,40.000000,0.000000,8207.000000,8094.000000,8204.000000,12214.000000,7809.000000,8677.000000,8126.000000,8290.000000,7575.000000,,,,,,,,,,,,,,,,,,,,,,,,,,,,,,,,,,,,,,,,,,,,,,,,,,,,,,,,,,,,,,,,,,,,,,,,,,,,,,,,,,,,,,,,,,,,,,,,,,,,,,,,,,,,,,,,,,,,
1598856689.025254,81.000000,0.000000,4217.563965,4216.794922,4217.563965,4218.077148,4213.333496,4210.512695,4210.256348,4217.563965,4217.692383,4222.820313,4269.487305,4956.666504,4216.025879,4221.410156,0.000000,2.000000,,,,0.000000,0.000000,0.000000,0.000000,0.000000,0.000000,0.000000,0.000000,0.000000,0.000000,0.000000,0.000000,0.000000,0.000000,0.000000,0.000000,,,,,,,,,,,,,,,,,,,,,,,,,,,,,,,,,,,,,,,,,,,,,,,,,,,,,,,,,,,,,,,,,,,,,,,,,,,,,,,,,,,,,,,,,,,,,,,,,,,,,,,,,,,,,,,,,,,,,,,,,,,,,,,
1598856689.033134,82.000000,0.000000,4215.897461,4216.410156,4215.641113,4215.769043,4212.563965,4213.205078,4208.717773,4217.563965,4218.717773,4219.871582,4268.589844,4957.692383,4217.436035,4223.205078,0.000000,2.000000,,,,0.000000,0.000000,0.000000,0.000000,0.000000,0.000000,0.000000,0.000000,0.000000,0.000000,0.000000,0.000000,0.000000,0.000000,0.000000,0.000000,41.000000,0.000000,8205.000000,8090.000000,8210.000000,12210.000000,7792.000000,8681.000000,8131.000000,8293.000000,7572.000000,,,,,,,,,,,,,,,,,,,,,,,,,,,,,,,,,,,,,,,,,,,,,,,,,,,,,,,,,,,,,,,,,,,,,,,,,,,,,,,,,,,,,,,,,,,,,,,,,,,,,,,,,,,,,,,,,,,,
1598856689.040915,83.000000,0.000000,4215.641113,4216.153809,4216.025879,4216.538574,4212.948730,4215.128418,4211.025879,4217.563965,4217.179688,4219.358887,4267.692383,4957.692383,4218.077148,4221.538574,0.000000,2.000000,,,,0.000000,0.000000,0.000000,0.000000,0.000000,0.000000,0.000000,0.000000,0.000000,0.000000,0.000000,0.000000,0.000000,0.000000,0.000000,0.000000,,,,,,,,,,,,,,,,,,,,,,,,,,,,,,,,,,,,,,,,,,,,,,,,,,,,,,,,,,,,,,,,,,,,,,,,,,,,,,,,,,,,,,,,,,,,,,,,,,,,,,,,,,,,,,,,,,,,,,,,,,,,,,,
1598856689.048695,84.000000,0.000000,4217.179688,4215.128418,4219.102539,4218.461426,4212.563965,4212.820313,4210.641113,4217.692383,4215.769043,4220.897461,4269.487305,4957.948730,4217.051270,4221.153809,0.000000,2.000000,,,,0.000000,0.000000,0.000000,0.000000,0.000000,0.000000,0.000000,0.000000,0.000000,0.000000,0.000000,0.000000,0.000000,0.000000,0.000000,0.000000,42.000000,0.000000,8207.000000,8098.000000,8198.000000,12217.000000,7808.000000,8680.000000,8128.000000,8289.000000,7572.000000,,,,,,,,,,,,,,,,,,,,,,,,,,,,,,,,,,,,,,,,,,,,,,,,,,,,,,,,,,,,,,,,,,,,,,,,,,,,,,,,,,,,,,,,,,,,,,,,,,,,,,,,,,,,,,,,,,,,
1598856689.056575,85.000000,0.000000,4216.794922,4213.333496,4217.436035,4215.769043,4212.307617,4212.307617,4210.000000,4217.563965,4217.179688,4220.128418,4271.153809,4956.922852,4218.717773,4222.307617,0.000000,2.000000,,,,0.000000,0.000000,0.000000,0.000000,0.000000,0.000000,0.000000,0.000000,0.000000,0.000000,0.000000,0.000000,0.000000,0.000000,0.000000,0.000000,,,,,,,,,,,,,,,,,,,,,,,,,,,,,,,,,,,,,,,,,,,,,,,,,,,,,,,,,,0.007848,0.005299,0.007026,0.002767,0.006490,0.012242,0.009028,0.005223,0.005743,0.007501,0.015629,0.031995,0.017683,0.013169,0.021964,0.012271,0.039840,0.024464,0.018179,0.014391,0.034592,0.021562,0.021012,0.020371,0.015992,0.030260,0.018630,0.021107,0.030315,0.038966,0.024548,0.035594,0.037823,0.031338,0.019712,0.008032,0.005154,0.001118,0.000801,0.000437,0.011050,0.011187,0.014507,0.016002,0.020290,0.020791,0.035670,0.010890,0.017055,0.026258,0.006166,0.007255,0.003323,0.018182,0.018446,0.017759,0.022752,0.021261,0.020626,0.016980,0.013382,0.031175,0.035015,0.034976,0.033421,0.016893,0.011339,0.026506,0.026588,0.027153
1598856689.064356,86.000000,0.000000,4215.384766,4214.487305,4214.615234,4214.358887,4214.615234,4212.563965,4212.820313,4217.436035,4217.563965,4220.128418,4270.256348,4956.666504,4220.897461,4222.179688,0.000000,2.000000,,,,0.000000,0.000000,0.000000,0.000000,0.000000,0.000000,0.000000,0.000000,0.000000,0.000000,0.000000,0.000000,0.000000,0.000000,0.000000,0.000000,43.000000,0.000000,8209.000000,8088.000000,8201.000000,12217.000000,7816.000000,8674.000000,8127.000000,8292.000000,7573.000000,,,,,,,,,,,,,,,,,,,,,,,,,,,,,,,,,,,,,,,,,,,,,,,,,,,,,,,,,,,,,,,,,,,,,,,,,,,,,,,,,,,,,,,,,,,,,,,,,,,,,,,,,,,,,,,,,,,,
1598856689.072237,87.000000,0.000000,4216.794922,4216.282227,4214.487305,4216.153809,4213.461426,4210.897461,4211.922852,4217.948730,4216.666504,4220.769043,4269.487305,4956.153809,4218.205078,4221.025879,0.000000,2.000000,,,,0.000000,0.000000,0.000000,0.000000,0.000000,0.000000,0.000000,0.000000,0.000000,0.000000,0.000000,0.000000,0.000000,0.000000,0.000000,0.000000,,,,,,,,,,,,,,,,,,,,,,,,,,,,,,,,,,,,,,,,,,,,,,,,,,,,,,,,,,,,,,,,,,,,,,,,,,,,,,,,,,,,,,,,,,,,,,,,,,,,,,,,,,,,,,,,,,,,,,,,,,,,,,,
1598856689.080117,88.000000,0.000000,4217.820313,4216.153809,4216.153809,4218.077148,4210.384766,4210.512695,4207.948730,4217.563965,4216.666504,4217.948730,4271.538574,4956.666504,4214.102539,4221.538574,0.000000,2.000000,,,,0.000000,0.000000,0.000000,0.000000,0.000000,0.000000,0.000000,0.000000,0.000000,0.000000,0.000000,0.000000,0.000000,0.000000,0.000000,0.000000,44.000000,0.000000,8209.000000,8089.000000,8208.000000,12216.000000,7809.000000,8690.000000,8131.000000,8288.000000,7572.000000,,,,,,,,,,,,,,,,,,,,,,,,,,,,,,,,,,,,,,,,,,,,,,,,,,,,,,,,,,,,,,,,,,,,,,,,,,,,,,,,,,,,,,,,,,,,,,,,,,,,,,,,,,,,,,,,,,,,
1598856689.087998,89.000000,0.000000,4216.538574,4216.282227,4214.487305,4217.307617,4211.538574,4212.307617,4210.128418,4216.025879,4216.282227,4218.717773,4270.128418,4956.666504,4215.641113,4222.179688,0.000000,2.000000,,,,0.000000,0.000000,0.000000,0.000000,0.000000,0.000000,0.000000,0.000000,0.000000,0.000000,0.000000,0.000000,0.000000,0.000000,0.000000,0.000000,,,,,,,,,,,,,,,,,,,,,,,,,,,,,,,,,,,,,,,,,,,,,,,,,,,,,,,,,,,,,,,,,,,,,,,,,,,,,,,,,,,,,,,,,,,,,,,,,,,,,,,,,,,,,,,,,,,,,,,,,,,,,,,
1598856689.095879,90.000000,0.000000,4215.641113,4216.538574,4213.846191,4216.666504,4214.871582,4212.179688,4212.051270,4216.153809,4216.153809,4223.461426,4266.922852,4958.974121,4218.077148,4223.077148,0.000000,2.000000,,,,0.000000,0.000000,0.000000,0.000000,0.000000,0.000000,0.000000,0.000000,0.000000,0.000000,0.000000,0.000000,0.000000,0.000000,0.000000,0.000000,45.000000,0.000000,8206.000000,8094.000000,8202.000000,12217.000000,7805.000000,8680.000000,8131.000000,8291.000000,7574.000000,,,,,,,,,,,,,,,,,,,,,,,,,,,,,,,,,,,,,,,,,,,,,,,,,,,,,,,,,,,,,,,,,,,,,,,,,,,,,,,,,,,,,,,,,,,,,,,,,,,,,,,,,,,,,,,,,,,,
1598856689.103759,91.000000,0.000000,4215.769043,4216.538574,4215.128418,4216.538574,4214.615234,4209.615234,4208.846191,4217.436035,4217.179688,4222.179688,4268.846191,4959.743652,4218.077148,4223.461426,0.000000,2.000000,,,,0.000000,0.000000,0.000000,0.000000,0.000000,0.000000,0.000000,0.000000,0.000000,0.000000,0.000000,0.000000,0.000000,0.000000,0.000000,0.000000,,,,,,,,,,,,,,,,,,,,,,,,,,,,,,,,,,,,,,,,,,,,,,,,,,,,,,,,,,,,,,,,,,,,,,,,,,,,,,,,,,,,,,,,,,,,,,,,,,,,,,,,,,,,,,,,,,,,,,,,,,,,,,,
1598856689.111640,92.000000,0.000000,4216.153809,4215.897461,4216.025879,4217.820313,4213.077148,4211.538574,4210.641113,4217.179688,4216.666504,4219.871582,4269.487305,4957.820313,4215.897461,4220.384766,0.000000,2.000000,,,,0.000000,0.000000,0.000000,0.000000,0.000000,0.000000,0.000000,0.000000,0.000000,0.000000,0.000000,0.000000,0.000000,0.000000,0.000000,0.000000,46.000000,0.000000,8210.000000,8093.000000,8196.000000,12225.000000,7812.000000,8678.000000,8128.000000,8292.000000,7574.000000,,,,,,,,,,,,,,,,,,,,,,,,,,,,,,,,,,,,,,,,,,,,,,,,,,,,,,,,,,,,,,,,,,,,,,,,,,,,,,,,,,,,,,,,,,,,,,,,,,,,,,,,,,,,,,,,,,,,
1598856689.119521,93.000000,0.000000,4216.666504,4214.487305,4215.256348,4217.051270,4212.307617,4213.333496,4214.230957,4216.410156,4216.282227,4223.077148,4268.717773,4957.948730,4217.051270,4218.846191,0.000000,2.000000,,,,0.000000,0.000000,0.000000,0.000000,0.000000,0.000000,0.000000,0.000000,0.000000,0.000000,0.000000,0.000000,0.000000,0.000000,0.000000,0.000000,,,,,,,,,,,,,,,,,,,,,,,,,,,,,,,,,,,,,,,,,,,,,,,,,,,,,,,,,,,,,,,,,,,,,,,,,,,,,,,,,,,,,,,,,,,,,,,,,,,,,,,,,,,,,,,,,,,,,,,,,,,,,,,
1598856689.127302,94.000000,0.000000,4216.410156,4214.102539,4217.179688,4216.025879,4213.077148,4212.692383,4211.794922,4216.666504,4216.538574,4221.025879,4271.282227,4958.974121,4216.410156,4222.692383,0.000000,2.000000,,,,0.000000,0.000000,0.000000,0.000000,0.000000,0.000000,0.000000,0.000000,0.000000,0.000000,0.000000,0.000000,0.000000,0.000000,0.000000,0.000000,47.000000,0.000000,8210.000000,8090.000000,8201.000000,12216.000000,7803.000000,8682.000000,8128.000000,8286.000000,7577.000000,,,,,,,,,,,,,,,,,,,,,,,,,,,,,,,,,,,,,,,,,,,,,,,,,,,,,,,,,,,,,,,,,,,,,,,,,,,,,,,,,,,,,,,,,,,,,,,,,,,,,,,,,,,,,,,,,,,,
1598856689.135182,95.000000,0.000000,4215.641113,4215.769043,4216.794922,4215.641113,4214.230957,4212.563965,4208.974121,4216.794922,4215.897461,4218.461426,4272.948730,4954.743652,4217.436035,4227.179688,0.000000,2.000000,,,,0.000000,0.000000,0.000000,0.000000,0.000000,0.000000,0.000000,0.000000,0.000000,0.000000,0.000000,0.000000,0.000000,0.000000,0.000000,0.000000,,,,,,,,,,,,,,,,,,,,,,,,,,,,,,,,,,,,,,,,,,,,,,,,,,,,,,,,,,,,,,,,,,,,,,,,,,,,,,,,,,,,,,,,,,,,,,,,,,,,,,,,,,,,,,,,,,,,,,,,,,,,,,,
1598856689.143063,96.000000,0.000000,4216.282227,4216.282227,4215.384766,4217.051270,4214.358887,4213.589844,4211.282227,4216.666504,4216.282227,4221.282227,4269.230957,4952.436035,4218.077148,4223.589844,0.000000,2.000000,,,,0.000000,0.000000,0.000000,0.000000,0.000000,0.000000,0.000000,0.000000,0.000000,0.000000,0.000000,0.000000,0.000000,0.000000,0.000000,0.000000,48.000000,0.000000,8209.000000,8094.000000,8200.000000,12220.000000,7824.000000,8669.000000,8128.000000,8285.000000,7575.000000,,,,,,,,,,,,,,,,,,,,,,,,,,,,,,,,,,,,,,,,,,,,,,,,,,,,,,,,,,,,,,,,,,,,,,,,,,,,,,,,,,,,,,,,,,,,,,,,,,,,,,,,,,,,,,,,,,,,
1598856689.150944,97.000000,0.000000,4216.153809,4215.769043,4215.256348,4216.922852,4213.461426,4211.153809,4211.025879,4216.666504,4217.563965,4222.307617,4268.589844,4957.051270,4215.128418,4219.102539,0.000000,2.000000,,,,0.000000,0.000000,0.000000,0.000000,0.000000,0.000000,0.000000,0.000000,0.000000,0.000000,0.000000,0.000000,0.000000,0.000000,0.000000,0.000000,,,,,,,,,,,,,,,,,,,,,,,,,,,,,,,,,,,,,,,,,,,,,,,,,,,,,,,,,,,,,,,,,,,,,,,,,,,,,,,,,,,,,,,,,,,,,,,,,,,,,,,,,,,,,,,,,,,,,,,,,,,,,,,
1598856689.158824,98.000000,0.000000,4214.358887,4217.307617,4217.563965,4214.102539,4212.436035,4212.051270,4208.717773,4216.666504,4216.666504,4222.307617,4268.717773,4958.461426,4213.333496,4217.692383,0.000000,2.000000,,,,0.000000,0.000000,0.000000,0.000000,0.000000,0.000000,0.000000,0.000000,0.000000,0.000000,0.000000,0.000000,0.000000,0.000000,0.000000,0.000000,49.000000,0.000000,8207.000000,8092.000000,8194.000000,12211.000000,7828.000000,8678.000000,8128.000000,8287.000000,7575.000000,,,,,,,,,,,,,,,,,,,,,,,,,,,,,,,,,,,,,,,,,,,,,,,,,,,,,,,,,,,,,,,,,,,,,,,,,,,,,,,,,,,,,,,,,,,,,,,,,,,,,,,,,,,,,,,,,,,,
1598856689.166705,99.000000,0.000000,4214.358887,4215.897461,4219.102539,4214.102539,4212.307617,4213.589844,4207.179688,4216.666504,4215.897461,4223.717773,4267.948730,4958.461426,4218.333496,4219.358887,0.000000,2.000000,,,,0.000000,0.000000,0.000000,0.000000,0.000000,0.000000,0.000000,0.000000,0.000000,0.000000,0.000000,0.000000,0.000000,0.000000,0.000000,0.000000,,,,,,,,,,,,,,,,,,,,,,,,,,,,,,,,,,,,,,,,,,,,,,,,,,,,,,,,,,,,,,,,,,,,,,,,,,,,,,,,,,,,,,,,,,,,,,,,,,,,,,,,,,,,,,,,,,,,,,,,,,,,,,,
1598856689.174586,100.000000,0.000000,4215.769043,4213.717773,4215.641113,4217.948730,4215.128418,4211.794922,4209.487305,4216.666504,4216.538574,4222.692383,4269.615234,4958.974121,4219.102539,4220.641113,0.000000,2.000000,,,,0.000000,0.000000,0.000000,0.000000,0.000000,0.000000,0.000000,0.000000,0.000000,0.000000,0.000000,0.000000,0.000000,0.000000,0.000000,0.000000,50.000000,0.000000,8207.000000,8103.000000,8204.000000,12214.000000,7821.000000,8670.000000,8123.000000,8284.000000,7573.000000,,,,,,,,,,,,,,,,,,,,,,,,,,,,,,,,,,,,,,,,,,,,,,,,,,,,,,,,,,,,,,,,,,,,,,,,,,,,,,,,,,,,,,,,,,,,,,,,,,,,,,,,,,,,,,,,,,,,
1598856689.182466,101.000000,0.000000,4216.282227,4214.743652,4215.512695,4218.077148,4215.256348,4211.282227,4211.538574,4216.666504,4216.922852,4220.897461,4270.256348,4957.307617,4215.769043,4222.436035,0.000000,2.000000,,,,0.000000,0.000000,0.000000,0.000000,0.000000,0.000000,0.000000,0.000000,0.000000,0.000000,0.000000,0.000000,0.000000,0.000000,0.000000,0.000000,,,,,,,,,,,,,,,,,,,,,,,,,,,,,,,,,,,,,,,,,,,,,,,,,,,,,,,,,,0.009271,0.005666,0.006105,0.002618,0.006599,0.011814,0.006839,0.005358,0.005841,0.007032,0.015679,0.026206,0.016322,0.015246,0.020607,0.012021,0.035491,0.026412,0.018651,0.014875,0.029462,0.020666,0.022116,0.022731,0.015696,0.033165,0.017591,0.026592,0.028015,0.037403,0.024411,0.032760,0.034205,0.031510,0.018835,0.006717,0.003666,0.000909,0.000634,0.000373,0.012322,0.009953,0.014428,0.015357,0.020179,0.024887,0.034589,0.010407,0.017935,0.029423,0.005801,0.008636,0.003946,0.018889,0.017101,0.014049,0.019724,0.017563,0.018403,0.018848,0.014650,0.034511,0.032023,0.034356,0.035851,0.016177,0.014982,0.025237,0.025857,0.024750
1598856689.190347,102.000000,0.000000,4215.641113,4216.282227,4218.589844,4215.000000,4211.282227,4212.436035,4211.025879,4216.666504,4217.436035,4220.384766,4268.846191,4951.922852,4215.256348,4222.051270,0.000000,2.000000,,,,0.000000,0.000000,0.000000,0.000000,0.000000,0.000000,0.000000,0.000000,0.000000,0.000000,0.000000,0.000000,0.000000,0.000000,0.000000,0.000000,51.000000,0.000000,8204.000000,8099.000000,8200.000000,12213.000000,7799.000000,8678.000000,8123.000000,8276.000000,7573.000000,,,,,,,,,,,,,,,,,,,,,,,,,,,,,,,,,,,,,,,,,,,,,,,,,,,,,,,,,,,,,,,,,,,,,,,,,,,,,,,,,,,,,,,,,,,,,,,,,,,,,,,,,,,,,,,,,,,,
1598856689.198127,103.000000,0.000000,4215.897461,4215.769043,4216.538574,4215.512695,4210.641113,4211.282227,4209.487305,4216.666504,4217.820313,4218.589844,4269.615234,4954.102539,4216.410156,4222.820313,0.000000,2.000000,,,,0.000000,0.000000,0.000000,0.000000,0.000000,0.000000,0.000000,0.000000,0.000000,0.000000,0.000000,0.000000,0.000000,0.000000,0.000000,0.000000,,,,,,,,,,,,,,,,,,,,,,,,,,,,,,,,,,,,,,,,,,,,,,,,,,,,,,,,,,,,,,,,,,,,,,,,,,,,,,,,,,,,,,,,,,,,,,,,,,,,,,,,,,,,,,,,,,,,,,,,,,,,,,,
1598856689.206008,104.000000,0.000000,4216.153809,4214.743652,4211.538574,4218.333496,4213.589844,4210.641113,4209.230957,4216.666504,4218.589844,4220.641113,4270.000000,4958.717773,4216.410156,4222.563965,0.000000,2.000000,,,,0.000000,0.000000,0.000000,0.000000,0.000000,0.000000,0.000000,0.000000,0.000000,0.000000,0.000000,0.000000,0.000000,0.000000,0.000000,0.000000,52.000000,0.000000,8206.000000,8099.000000,8198.000000,12217.000000,7816.000000,8682.000000,8128.000000,8288.000000,7571.000000,,,,,,,,,,,,,,,,,,,,,,,,,,,,,,,,,,,,,,,,,,,,,,,,,,,,,,,,,,,,,,,,,,,,,,,,,,,,,,,,,,,,,,,,,,,,,,,,,,,,,,,,,,,,,,,,,,,,
1598856689.213788,105.000000,0.000000,4215.897461,4215.000000,4213.461426,4218.205078,4212.692383,4212.051270,4209.743652,4216.666504,4216.794922,4223.846191,4270.128418,4958.461426,4215.256348,4220.512695,0.000000,2.000000,,,,0.000000,0.000000,0.000000,0.000000,0.000000,0.000000,0.000000,0.000000,0.000000,0.000000,0.000000,0.000000,0.000000,0.000000,0.000000,0.000000,,,,,,,,,,,,,,,,,,,,,,,,,,,,,,,,,,,,,,,,,,,,,,,,,,,,,,,,,,,,,,,,,,,,,,,,,,,,,,,,,,,,,,,,,,,,,,,,,,,,,,,,,,,,,,,,,,,,,,,,,,,,,,,
1598856689.221669,106.000000,0.000000,4216.025879,4215.384766,4216.025879,4216.666504,4212.436035,4212.563965,4210.256348,4216.666504,4215.769043,4220.384766,4271.153809,4955.512695,4215.641113,4221.410156,0.000000,2.000000,,,,0.000000,0.000000,0.000000,0.000000,0.000000,0.000000,0.000000,0.000000,0.000000,0.000000,0.000000,0.000000,0.000000,0.000000,0.000000,0.000000,53.000000,0.000000,8205.000000,8097.000000,8201.000000,12215.000000,7810.000000,8675.000000,8130.000000,8290.000000,7573.000000,,,,,,,,,,,,,,,,,,,,,,,,,,,,,,,,,,,,,,,,,,,,,,,,,,,,,,,,,,,,,,,,,,,,,,,,,,,,,,,,,,,,,,,,,,,,,,,,,,,,,,,,,,,,,,,,,,,,
1598856689.229550,107.000000,0.000000,4216.538574,4215.641113,4216.666504,4218.717773,4216.025879,4211.153809,4211.666504,4216.666504,4219.743652,4218.333496,4270.512695,4956.666504,4216.025879,4221.666504,0.000000,2.000000,,,,0.000000,0.000000,0.000000,0.000000,0.000000,0.000000,0.000000,0.000000,0.000000,0.000000,0.000000,0.000000,0.000000,0.000000,0.000000,0.000000,,,,,,,,,,,,,,,,,,,,,,,,,,,,,,,,,,,,,,,,,,,,,,,,,,,,,,,,,,,,,,,,,,,,,,,,,,,,,,,,,,,,,,,,,,,,,,,,,,,,,,,,,,,,,,,,,,,,,,,,,,,,,,,
1598856689.237430,108.000000,0.000000,4217.563965,4215.641113,4216.666504,4219.615234,4216.153809,4210.897461,4211.794922,4216.666504,4221.025879,4221.538574,4270.256348,4958.205078,4216.666504,4220.256348,0.000000,2.000000,,,,0.000000,0.000000,0.000000,0.000000,0.000000,0.000000,0.000000,0.000000,0.000000,0.000000,0.000000,0.000000,0.000000,0.000000,0.000000,0.000000,54.000000,0.000000,8202.000000,8095.000000,8198.000000,12212.000000,7816.000000,8683.000000,8127.000000,8291.000000,7574.000000,,,,,,,,,,,,,,,,,,,,,,,,,,,,,,,,,,,,,,,,,,,,,,,,,,,,,,,,,,,,,,,,,,,,,,,,,,,,,,,,,,,,,,,,,,,,,,,,,,,,,,,,,,,,,,,,,,,,
1598856689.245311,109.000000,0.000000,4216.153809,4215.897461,4216.153809,4218.461426,4213.589844,4212.948730,4211.025879,4216.666504,4215.897461,4221.025879,4272.051270,4956.794922,4217.051270,4221.153809,0.000000,2.000000,,,,0.000000,0.000000,0.000000,0.000000,0.000000,0.000000,0.000000,0.000000,0.000000,0.000000,0.000000,0.000000,0.000000,0.000000,0.000000,0.000000,,,,,,,,,,,,,,,,,,,,,,,,,,,,,,,,,,,,,,,,,,,,,,,,,,,,,,,,,,,,,,,,,,,,,,,,,,,,,,,,,,,,,,,,,,,,,,,,,,,,,,,,,,,,,,,,,,,,,,,,,,,,,,,
1598856689.253192,110.000000,0.000000,4214.487305,4216.410156,4216.025879,4217.051270,4212.692383,4212.563965,4211.153809,4216.666504,4214.230957,4217.948730,4271.794922,4957.563965,4218.717773,4221.410156,0.000000,2.000000,,,,0.000000,0.000000,0.000000,0.000000,0.000000,0.000000,0.000000,0.000000,0.000000,0.000000,0.000000,0.000000,0.000000,0.000000,0.000000,0.000000,55.000000,0.000000,8210.000000,8091.000000,8208.000000,12215.000000,7821.000000,8679.000000,8126.000000,8289.000000,7572.000000,,,,,,,,,,,,,,,,,,,,,,,,,,,,,,,,,,,,,,,,,,,,,,,,,,,,,,,,,,,,,,,,,,,,,,,,,,,,,,,,,,,,,,,,,,,,,,,,,,,,,,,,,,,,,,,,,,,,
1598856689.261072,111.000000,0.000000,4215.769043,4215.641113,4217.051270,4217.948730,4212.436035,4211.922852,4213.205078,4216.666504,4216.666504,4218.589844,4269.230957,4958.077148,4216.922852,4219.615234,0.000000,2.000000,,,,0.000000,0.000000,0.000000,0.000000,0.000000,0.000000,0.000000,0.000000,0.000000,0.000000,0.000000,0.000000,0.000000,0.000000,0.000000,0.000000,,,,,,,,,,,,,,,,,,,,,,,,,,,,,,,,,,,,,,,,,,,,,,,,,,,,,,,,,,,,,,,,,,,,,,,,,,,,,,,,,,,,,,,,,,,,,,,,,,,,,,,,,,,,,,,,,,,,,,,,,,,,,,,
1598856689.268953,112.000000,0.000000,4218.205078,4215.384766,4212.948730,4216.153809,4212.307617,4211.410156,4212.051270,4216.666504,4217.563965,4221.025879,4269.358887,4955.256348,4217.563965,4221.794922,0.000000,2.000000,,,,0.000000,0.000000,0.000000,0.000000,0.000000,0.000000,0.000000,0.000000,0.000000,0.000000,0.000000,0.000000,0.000000,0.000000,0.000000,0.000000,56.000000,0.000000,8209.000000,8098.000000,8201.000000,12223.000000,7833.000000,8672.000000,8131.000000,8274.000000,7572.000000,,,,,,,,,,,,,,,,,,,,,,,,,,,,,,,,,,,,,,,,,,,,,,,,,,,,,,,,,,,,,,,,,,,,,,,,,,,,,,,,,,,,,,,,,,,,,,,,,,,,,,,,,,,,,,,,,,,,
1598856689.276834,113.000000,0.000000,4218.589844,4215.897461,4213.077148,4215.128418,4214.230957,4211.794922,4207.051270,4216.666504,4215.512695,4220.256348,4269.102539,4956.025879,4217.436035,4222.820313,0.000000,2.000000,,,,0.000000,0.000000,0.000000,0.000000,0.000000,0.000000,0.000000,0.000000,0.000000,0.000000,0.000000,0.000000,0.000000,0.000000,0.000000,0.000000,,,,,,,,,,,,,,,,,,,,,,,,,,,,,,,,,,,,,,,,,,,,,,,,,,,,,,,,,,,,,,,,,,,,,,,,,,,,,,,,,,,,,,,,,,,,,,,,,,,,,,,,,,,,,,,,,,,,,,,,,,,,,,,
1598856689.284615,114.000000,0.000000,4217.948730,4216.153809,4217.692383,4215.641113,4213.846191,4212.948730,4207.820313,4216.666504,4214.871582,4218.333496,4269.102539,4960.128418,4215.000000,4220.769043,0.000000,2.000000,,,,0.000000,0.000000,0.000000,0.000000,0.000000,0.000000,0.000000,0.000000,0.000000,0.000000,0.000000,0.000000,0.000000,0.000000,0.000000,0.000000,57.000000,0.000000,8208.000000,8093.000000,8202.000000,12216.000000,7803.000000,8676.000000,8130.000000,8285.000000,7575.000000,,,,,,,,,,,,,,,,,,,,,,,,,,,,,,,,,,,,,,,,,,,,,,,,,,,,,,,,,,,,,,,,,,,,,,,,,,,,,,,,,,,,,,,,,,,,,,,,,,,,,,,,,,,,,,,,,,,,
1598856689.292495,115.000000,0.000000,4218.205078,4215.000000,4217.820313,4216.025879,4212.563965,4212.563965,4212.307617,4216.666504,4220.000000,4218.974121,4268.461426,4957.179688,4214.871582,4220.769043,0.000000,2.000000,,,,0.000000,0.000000,0.000000,0.000000,0.000000,0.000000,0.000000,0.000000,0.000000,0.000000,0.000000,0.000000,0.000000,0.000000,0.000000,0.000000,,,,,,,,,,,,,,,,,,,,,,,,,,,,,,,,,,,,,,,,,,,,,,,,,,,,,,,,,,,,,,,,,,,,,,,,,,,,,,,,,,,,,,,,,,,,,,,,,,,,,,,,,,,,,,,,,,,,,,,,,,,,,,,
1598856689.300376,116.000000,0.000000,4218.461426,4214.871582,4215.384766,4215.384766,4213.717773,4209.102539,4209.743652,4216.666504,4223.717773,4221.410156,4269.230957,4952.820313,4218.974121,4222.820313,0.000000,2.000000,,,,0.000000,0.000000,0.000000,0.000000,0.000000,0.000000,0.000000,0.000000,0.000000,0.000000,0.000000,0.000000,0.000000,0.000000,0.000000,0.000000,58.000000,0.000000,8207.000000,8090.000000,8207.000000,12218.000000,7822.000000,8683.000000,8125.000000,8268.000000,7572.000000,,,,,,,,,,,,,,,,,,,,,,,,,,,,,,,,,,,,,,,,,,,,,,,,,,,,,,,,,,,,,,,,,,,,,,,,,,,,,,,,,,,,,,,,,,,,,,,,,,,,,,,,,,,,,,,,,,,,
1598856689.308257,117.000000,0.000000,4218.077148,4216.025879,4215.769043,4214.615234,4214.230957,4211.666504,4208.205078,4216.666504,4218.461426,4222.051270,4270.769043,4955.512695,4218.717773,4221.025879,0.000000,2.000000,,,,0.000000,0.000000,0.000000,0.000000,0.000000,0.000000,0.000000,0.000000,0.000000,0.000000,0.000000,0.000000,0.000000,0.000000,0.000000,0.000000,,,,,,,,,,,,,,,,,,,,,,,,,,,,,,,,,,,,,,,,,,,,,,,,,,,,,,,,,,0.010860,0.006234,0.005155,0.002628,0.006679,0.011284,0.005388,0.005733,0.006036,0.006591,0.016959,0.020892,0.016120,0.017117,0.018537,0.011621,0.028602,0.029677,0.020004,0.015219,0.024653,0.020625,0.022414,0.024625,0.015819,0.033768,0.018526,0.031811,0.024565,0.034841,0.024081,0.028743,0.029023,0.029815,0.018333,0.005399,0.002857,0.000758,0.000590,0.000353,0.014169,0.009868,0.014514,0.015529,0.021709,0.030289,0.037360,0.011234,0.018548,0.032284,0.005217,0.010501,0.004492,0.019265,0.015132,0.012440,0.018843,0.015945,0.016825,0.021566,0.015230,0.034813,0.028447,0.032466,0.037266,0.017973,0.024123,0.023402,0.024655,0.022372
1598856689.316137,118.000000,0.000000,4216.794922,4216.410156,4218.333496,4215.256348,4212.948730,4213.974121,4211.538574,4216.666504,4214.487305,4222.436035,4269.871582,4959.358887,4216.410156,4221.538574,0.000000,2.000000,,,,0.000000,0.000000,0.000000,0.000000,0.000000,0.000000,0.000000,0.000000,0.000000,0.000000,0.000000,0.000000,0.000000,0.000000,0.000000,0.000000,59.000000,0.000000,8208.000000,8092.000000,8211.000000,12214.000000,7806.000000,8672.000000,8127.000000,8288.000000,7573.000000,,,,,,,,,,,,,,,,,,,,,,,,,,,,,,,,,,,,,,,,,,,,,,,,,,,,,,,,,,,,,,,,,,,,,,,,,,,,,,,,,,,,,,,,,,,,,,,,,,,,,,,,,,,,,,,,,,,,
1598856689.324018,119.000000,0.000000,4216.410156,4216.538574,4217.436035,4218.333496,4214.871582,4211.153809,4212.179688,4216.666504,4215.897461,4222.820313,4269.871582,4956.666504,4216.282227,4221.538574,0.000000,2.000000,,,,0.000000,0.000000,0.000000,0.000000,0.000000,0.000000,0.000000,0.000000,0.000000,0.000000,0.000000,0.000000,0.000000,0.000000,0.000000,0.000000,,,,,,,,,,,,,,,,,,,,,,,,,,,,,,,,,,,,,,,,,,,,,,,,,,,,,,,,,,,,,,,,,,,,,,,,,,,,,,,,,,,,,,,,,,,,,,,,,,,,,,,,,,,,,,,,,,,,,,,,,,,,,,,
1598856689.331899,120.000000,0.000000,4216.922852,4216.666504,4215.512695,4219.102539,4217.307617,4212.692383,4210.128418,4216.666504,4216.153809,4220.384766,4271.410156,4956.153809,4218.077148,4220.384766,0.000000,2.000000,,,,0.000000,0.000000,0.000000,0.000000,0.000000,0.000000,0.000000,0.000000,0.000000,0.000000,0.000000,0.000000,0.000000,0.000000,0.000000,0.000000,60.000000,0.000000,8208.000000,8092.000000,8205.000000,12214.000000,7808.000000,8681.000000,8129.000000,8286.000000,7573.000000,,,,,,,,,,,,,,,,,,,,,,,,,,,,,,,,,,,,,,,,,,,,,,,,,,,,,,,,,,,,,,,,,,,,,,,,,,,,,,,,,,,,,,,,,,,,,,,,,,,,,,,,,,,,,,,,,,,,
1598856689.339779,121.000000,0.000000,4216.410156,4217.692383,4215.256348,4216.666504,4217.436035,4215.897461,4210.512695,4216.666504,4218.461426,4221.025879,4270.256348,4955.256348,4217.692383,4222.051270,0.000000,2.000000,,,,0.000000,0.000000,0.000000,0.000000,0.000000,0.000000,0.000000,0.000000,0.000000,0.000000,0.000000,0.000000,0.000000,0.000000,0.000000,0.000000,,,,,,,,,,,,,,,,,,,,,,,,,,,,,,,,,,,,,,,,,,,,,,,,,,,,,,,,,,,,,,,,,,,,,,,,,,,,,,,,,,,,,,,,,,,,,,,,,,,,,,,,,,,,,,,,,,,,,,,,,,,,,,,
1598856689.347660,122.000000,0.000000,4216.922852,4217.436035,4216.794922,4218.205078,4217.307617,4215.000000,4211.922852,4216.666504,4219.230957,4223.205078,4270.000000,4955.128418,4215.641113,4225.256348,0.000000,2.000000,,,,0.000000,0.000000,0.000000,0.000000,0.000000,0.000000,0.000000,0.000000,0.000000,0.000000,0.000000,0.000000,0.000000,0.000000,0.000000,0.000000,61.000000,0.000000,8210.000000,8092.000000,8199.000000,12217.000000,7815.000000,8684.000000,8127.000000,8286.000000,7574.000000,,,,,,,,,,,,,,,,,,,,,,,,,,,,,,,,,,,,,,,,,,,,,,,,,,,,,,,,,,,,,,,,,,,,,,,,,,,,,,,,,,,,,,,,,,,,,,,,,,,,,,,,,,,,,,,,,,,,
1598856689.355441,123.000000,0.000000,4217.948730,4216.410156,4216.794922,4219.487305,4216.922852,4213.461426,4212.051270,4216.666504,4217.051270,4222.307617,4271.666504,4955.512695,4216.410156,4222.820313,0.000000,2.000000,,,,0.000000,0.000000,0.000000,0.000000,0.000000,0.000000,0.000000,0.000000,0.000000,0.000000,0.000000,0.000000,0.000000,0.000000,0.000000,0.000000,,,,,,,,,,,,,,,,,,,,,,,,,,,,,,,,,,,,,,,,,,,,,,,,,,,,,,,,,,,,,,,,,,,,,,,,,,,,,,,,,,,,,,,,,,,,,,,,,,,,,,,,,,,,,,,,,,,,,,,,,,,,,,,
1598856689.363322,124.000000,0.000000,4216.410156,4216.282227,4218.846191,4217.051270,4213.205078,4213.205078,4209.615234,4216.666504,4218.846191,4222.051270,4269.743652,4956.153809,4216.153809,4219.743652,0.000000,2.000000,,,,0.000000,0.000000,0.000000,0.000000,0.000000,0.000000,0.000000,0.000000,0.000000,0.000000,0.000000,0.000000,0.000000,0.000000,0.000000,0.000000,62.000000,0.000000,8212.000000,8096.000000,8199.000000,12220.000000,7815.000000,8678.000000,8130.000000,8290.000000,7573.000000,,,,,,,,,,,,,,,,,,,,,,,,,,,,,,,,,,,,,,,,,,,,,,,,,,,,,,,,,,,,,,,,,,,,,,,,,,,,,,,,,,,,,,,,,,,,,,,,,,,,,,,,,,,,,,,,,,,,
1598856689.371202,125.000000,0.000000,4216.282227,4215.641113,4218.333496,4215.512695,4210.897461,4212.563965,4208.461426,4216.666504,4219.871582,4223.717773,4267.692383,4954.102539,4216.922852,4221.153809,0.000000,2.000000,,,,0.000000,0.000000,0.000000,0.000000,0.000000,0.000000,0.000000,0.000000,0.000000,0.000000,0.000000,0.000000,0.000000,0.000000,0.000000,0.000000,,,,,,,,,,,,,,,,,,,,,,,,,,,,,,,,,,,,,,,,,,,,,,,,,,,,,,,,,,,,,,,,,,,,,,,,,,,,,,,,,,,,,,,,,,,,,,,,,,,,,,,,,,,,,,,,,,,,,,,,,,,,,,,
1598856689.379083,126.000000,0.000000,4218.333496,4215.000000,4216.025879,4217.307617,4212.820313,4213.205078,4212.179688,4216.666504,4214.871582,4220.384766,4270.128418,4955.384766,4220.128418,4222.948730,0.000000,2.000000,,,,0.000000,0.000000,0.000000,0.000000,0.000000,0.000000,0.000000,0.000000,0.000000,0.000000,0.000000,0.000000,0.000000,0.000000,0.000000,0.000000,63.000000,0.000000,8205.000000,8095.000000,8196.000000,12216.000000,7817.000000,8673.000000,8127.000000,8288.000000,7576.000000,,,,,,,,,,,,,,,,,,,,,,,,,,,,,,,,,,,,,,,,,,,,,,,,,,,,,,,,,,,,,,,,,,,,,,,,,,,,,,,,,,,,,,,,,,,,,,,,,,,,,,,,,,,,,,,,,,,,
1598856689.386964,127.000000,0.000000,4217.563965,4215.769043,4215.641113,4216.922852,4213.077148,4213.461426,4212.948730,4216.666504,4215.897461,4218.974121,4270.256348,4959.230957,4220.897461,4221.666504,51.000000,2.000000,,,,0.000000,0.000000,0.000000,0.000000,0.000000,0.000000,0.000000,0.000000,0.000000,0.000000,0.000000,0.000000,0.000000,0.000000,0.000000,0.000000,,,,,,,,,,,,,,,,,,,,,,,,,,,,,,,,,,,,,,,,,,,,,,,,,,,,,,,,,,,,,,,,,,,,,,,,,,,,,,,,,,,,,,,,,,,,,,,,,,,,,,,,,,,,,,,,,,,,,,,,,,,,,,,
1598856689.394844,0.000000,0.000000,4215.512695,4216.922852,4217.307617,4216.666504,4211.282227,4212.307617,4210.256348,4216.666504,4223.077148,4223.974121,4268.589844,4959.871582,4216.922852,4220.897461,0.000000,2.000000,,,,0.000000,0.000000,0.000000,0.000000,0.000000,0.000000,0.000000,0.000000,0.000000,0.000000,0.000000,0.000000,0.000000,0.000000,0.000000,0.000000,0.000000,0.000000,8205.000000,8100.000000,8201.000000,12216.000000,7804.000000,8665.000000,8129.000000,8288.000000,7573.000000,,,,,,,,,,,,,,,,,,,,,,,,,,,,,,,,,,,,,,,,,,,,,,,,,,,,,,,,,,,,,,,,,,,,,,,,,,,,,,,,,,,,,,,,,,,,,,,,,,,,,,,,,,,,,,,,,,,,
1598856689.402725,1.000000,0.000000,4215.512695,4216.025879,4215.641113,4216.410156,4211.538574,4211.025879,4210.641113,4216.666504,4222.436035,4223.974121,4270.128418,4957.948730,4215.384766,4222.051270,0.000000,2.000000,,,,0.000000,0.000000,0.000000,0.000000,0.000000,0.000000,0.000000,0.000000,0.000000,0.000000,0.000000,0.000000,0.000000,0.000000,0.000000,0.000000,,,,,,,,,,,,,,,,,,,,,,,,,,,,,,,,,,,,,,,,,,,,,,,,,,,,,,,,,,,,,,,,,,,,,,,,,,,,,,,,,,,,,,,,,,,,,,,,,,,,,,,,,,,,,,,,,,,,,,,,,,,,,,,
1598856689.410606,2.000000,0.000000,4215.897461,4215.512695,4215.256348,4217.307617,4214.743652,4211.666504,4211.025879,4216.666504,4217.179688,4219.358887,4270.512695,4956.794922,4215.897461,4220.128418,0.000000,2.000000,,,,0.000000,0.000000,0.000000,0.000000,0.000000,0.000000,0.000000,0.000000,0.000000,0.000000,0.000000,0.000000,0.000000,0.000000,0.000000,0.000000,1.000000,0.000000,8206.000000,8103.000000,8202.000000,12216.000000,7808.000000,8681.000000,8130.000000,8289.000000,7573.000000,,,,,,,,,,,,,,,,,,,,,,,,,,,,,,,,,,,,,,,,,,,,,,,,,,,,,,,,,,,,,,,,,,,,,,,,,,,,,,,,,,,,,,,,,,,,,,,,,,,,,,,,,,,,,,,,,,,,
1598856689.418486,3.000000,0.000000,4216.153809,4215.641113,4215.897461,4215.897461,4214.615234,4212.820313,4209.487305,4216.666504,4216.025879,4220.000000,4270.128418,4957.820313,4217.179688,4221.410156,0.000000,2.000000,,,,0.000000,0.000000,0.000000,0.000000,0.000000,0.000000,0.000000,0.000000,0.000000,0.000000,0.000000,0.000000,0.000000,0.000000,0.000000,0.000000,,,,,,,,,,,,,,,,,,,,,,,,,,,,,,,,,,,,,,,,,,,,,,,,,,,,,,,,,,,,,,,,,,,,,,,,,,,,,,,,,,,,,,,,,,,,,,,,,,,,,,,,,,,,,,,,,,,,,,,,,,,,,,,
1598856689.426267,4.000000,0.000000,4217.436035,4216.153809,4217.820313,4214.743652,4213.205078,4212.948730,4211.666504,4216.666504,4216.153809,4220.769043,4270.000000,4956.794922,4214.487305,4223.333496,0.000000,2.000000,,,,0.000000,0.000000,0.000000,0.000000,0.000000,0.000000,0.000000,0.000000,0.000000,0.000000,0.000000,0.000000,0.000000,0.000000,0.000000,0.000000,2.000000,0.000000,8206.000000,8092.000000,8203.000000,12211.000000,7812.000000,8683.000000,8127.000000,8288.000000,7575.000000,,,,,,,,,,,,,,,,,,,,,,,,,,,,,,,,,,,,,,,,,,,,,,,,,,,,,,,,,,,,,,,,,,,,,,,,,,,,,,,,,,,,,,,,,,,,,,,,,,,,,,,,,,,,,,,,,,,,
1598856689.434148,5.000000,0.000000,4217.179688,4216.153809,4218.205078,4217.948730,4215.000000,4212.436035,4211.666504,4216.666504,4216.025879,4219.487305,4271.410156,4955.128418,4213.333496,4223.461426,0.000000,2.000000,,,,0.000000,0.000000,0.000000,0.000000,0.000000,0.000000,0.000000,0.000000,0.000000,0.000000,0.000000,0.000000,0.000000,0.000000,0.000000,0.000000,,,,,,,,,,,,,,,,,,,,,,,,,,,,,,,,,,,,,,,,,,,,,,,,,,,,,,,,,,0.012255,0.006800,0.004397,0.002792,0.006681,0.010517,0.004582,0.006270,0.006279,0.006240,0.019801,0.016918,0.017089,0.018526,0.016537,0.011346,0.020959,0.033359,0.021171,0.015355,0.020545,0.020396,0.021830,0.026199,0.016386,0.031958,0.020895,0.035727,0.021300,0.032068,0.023827,0.024576,0.023621,0.026494,0.018422,0.004269,0.002840,0.000703,0.000675,0.000405,0.016052,0.010798,0.014859,0.016569,0.023837,0.036154,0.041719,0.013073,0.018610,0.033771,0.004706,0.012005,0.004927,0.019334,0.012979,0.012943,0.020339,0.015802,0.016464,0.024256,0.015520,0.032630,0.026149,0.030616,0.037513,0.021684,0.036785,0.021018,0.023330,0.020596
1598856689.442029,6.000000,0.000000,4216.025879,4214.102539,4216.282227,4220.128418,4216.922852,4213.589844,4210.384766,4216.666504,4216.153809,4220.769043,4271.410156,4957.563965,4216.922852,4222.948730,0.000000,2.000000,,,,0.000000,0.000000,0.000000,0.000000,0.000000,0.000000,0.000000,0.000000,0.000000,0.000000,0.000000,0.000000,0.000000,0.000000,0.000000,0.000000,3.000000,0.000000,8208.000000,8091.000000,8205.000000,12218.000000,7827.000000,8684.000000,8127.000000,8292.000000,7571.000000,,,,,,,,,,,,,,,,,,,,,,,,,,,,,,,,,,,,,,,,,,,,,,,,,,,,,,,,,,,,,,,,,,,,,,,,,,,,,,,,,,,,,,,,,,,,,,,,,,,,,,,,,,,,,,,,,,,,
1598856689.449909,7.000000,0.000000,4216.153809,4213.717773,4216.666504,4217.948730,4212.820313,4213.589844,4211.794922,4216.666504,4217.051270,4222.820313,4269.743652,4960.512695,4220.128418,4223.461426,0.000000,2.000000,,,,0.000000,0.000000,0.000000,0.000000,0.000000,0.000000,0.000000,0.000000,0.000000,0.000000,0.000000,0.000000,0.000000,0.000000,0.000000,0.000000,,,,,,,,,,,,,,,,,,,,,,,,,,,,,,,,,,,,,,,,,,,,,,,,,,,,,,,,,,,,,,,,,,,,,,,,,,,,,,,,,,,,,,,,,,,,,,,,,,,,,,,,,,,,,,,,,,,,,,,,,,,,,,,
1598856689.457790,8.000000,0.000000,4217.179688,4215.897461,4217.563965,4215.769043,4210.769043,4213.205078,4214.230957,4216.666504,4217.051270,4221.410156,4268.461426,4956.282227,4215.256348,4220.512695,0.000000,2.000000,,,,0.000000,0.000000,0.000000,0.000000,0.000000,0.000000,0.000000,0.000000,0.000000,0.000000,0.000000,0.000000,0.000000,0.000000,0.000000,0.000000,4.000000,0.000000,8209.000000,8089.000000,8204.000000,12213.000000,7813.000000,8687.000000,8127.000000,8286.000000,7575.000000,,,,,,,,,,,,,,,,,,,,,,,,,,,,,,,,,,,,,,,,,,,,,,,,,,,,,,,,,,,,,,,,,,,,,,,,,,,,,,,,,,,,,,,,,,,,,,,,,,,,,,,,,,,,,,,,,,,,
1598856689.465671,9.000000,0.000000,4217.692383,4215.641113,4215.512695,4215.897461,4214.743652,4211.666504,4212.179688,4216.666504,4217.307617,4219.230957,4270.256348,4955.641113,4215.641113,4220.128418,0.000000,2.000000,,,,0.000000,0.000000,0.000000,0.000000,0.000000,0.000000,0.000000,0.000000,0.000000,0.000000,0.000000,0.000000,0.000000,0.000000,0.000000,0.000000,,,,,,,,,,,,,,,,,,,,,,,,,,,,,,,,,,,,,,,,,,,,,,,,,,,,,,,,,,,,,,,,,,,,,,,,,,,,,,,,,,,,,,,,,,,,,,,,,,,,,,,,,,,,,,,,,,,,,,,,,,,,,,,
1598856689.473551,10.000000,0.000000,4216.794922,4214.230957,4216.153809,4217.307617,4215.256348,4210.769043,4210.000000,4216.666504,4216.922852,4221.025879,4270.769043,4958.205078,4221.025879,4222.563965,0.000000,2.000000,,,,0.000000,0.000000,0.000000,0.000000,0.000000,0.000000,0.000000,0.000000,0.000000,0.000000,0.000000,0.000000,0.000000,0.000000,0.000000,0.000000,5.000000,0.000000,8206.000000,8098.000000,8203.000000,12227.000000,7809.000000,8672.000000,8126.000000,8287.000000,7572.000000,,,,,,,,,,,,,,,,,,,,,,,,,,,,,,,,,,,,,,,,,,,,,,,,,,,,,,,,,,,,,,,,,,,,,,,,,,,,,,,,,,,,,,,,,,,,,,,,,,,,,,,,,,,,,,,,,,,,
1598856689.481432,11.000000,0.000000,4216.282227,4215.128418,4219.102539,4218.589844,4210.641113,4213.974121,4210.897461,4216.666504,4216.538574,4224.871582,4269.230957,4958.717773,4220.384766,4222.179688,0.000000,2.000000,,,,0.000000,0.000000,0.000000,0.000000,0.000000,0.000000,0.000000,0.000000,0.000000,0.000000,0.000000,0.000000,0.000000,0.000000,0.000000,0.000000,,,,,,,,,,,,,,,,,,,,,,,,,,,,,,,,,,,,,,,,,,,,,,,,,,,,,,,,,,,,,,,,,,,,,,,,,,,,,,,,,,,,,,,,,,,,,,,,,,,,,,,,,,,,,,,,,,,,,,,,,,,,,,,
1598856689.489313,12.000000,0.000000,4216.922852,4216.410156,4217.563965,4216.794922,4211.153809,4216.025879,4212.179688,4216.666504,4216.153809,4221.666504,4269.102539,4957.179688,4217.563965,4220.256348,0.000000,2.000000,,,,0.000000,0.000000,0.000000,0.000000,0.000000,0.000000,0.000000,0.000000,0.000000,0.000000,0.000000,0.000000,0.000000,0.000000,0.000000,0.000000,6.000000,0.000000,8205.000000,8095.000000,8205.000000,12220.000000,7823.000000,8672.000000,8127.000000,8286.000000,7573.000000,,,,,,,,,,,,,,,,,,,,,,,,,,,,,,,,,,,,,,,,,,,,,,,,,,,,,,,,,,,,,,,,,,,,,,,,,,,,,,,,,,,,,,,,,,,,,,,,,,,,,,,,,,,,,,,,,,,,
1598856689.497094,13.000000,0.000000,4217.307617,4216.282227,4217.051270,4215.256348,4215.641113,4213.205078,4211.922852,4216.666504,4216.282227,4217.307617,4271.922852,4958.333496,4217.692383,4219.358887,0.000000,2.000000,,,,0.000000,0.000000,0.000000,0.000000,0.000000,0.000000,0.000000,0.000000,0.000000,0.000000,0.000000,0.000000,0.000000,0.000000,0.000000,0.000000,,,,,,,,,,,,,,,,,,,,,,,,,,,,,,,,,,,,,,,,,,,,,,,,,,,,,,,,,,,,,,,,,,,,,,,,,,,,,,,,,,,,,,,,,,,,,,,,,,,,,,,,,,,,,,,,,,,,,,,,,,,,,,,
1598856689.504975,14.000000,0.000000,4217.436035,4216.410156,4215.641113,4215.897461,4213.846191,4212.307617,4211.538574,4216.666504,4219.487305,4217.436035,4270.000000,4957.692383,4218.333496,4218.974121,0.000000,2.000000,,,,0.000000,0.000000,0.000000,0.000000,0.000000,0.000000,0.000000,0.000000,0.000000,0.000000,0.000000,0.000000,0.000000,0.000000,0.000000,0.000000,7.000000,0.000000,8213.000000,8095.000000,8206.000000,12218.000000,7819.000000,8688.000000,8126.000000,8285.000000,7572.000000,,,,,,,,,,,,,,,,,,,,,,,,,,,,,,,,,,,,,,,,,,,,,,,,,,,,,,,,,,,,,,,,,,,,,,,,,,,,,,,,,,,,,,,,,,,,,,,,,,,,,,,,,,,,,,,,,,,,
1598856689.512856,15.000000,0.000000,4216.666504,4216.282227,4215.256348,4216.538574,4210.897461,4212.179688,4212.307617,4216.666504,4220.897461,4217.563965,4265.000000,4956.410156,4215.384766,4220.641113,0.000000,2.000000,,,,0.000000,0.000000,0.000000,0.000000,0.000000,0.000000,0.000000,0.000000,0.000000,0.000000,0.000000,0.000000,0.000000,0.000000,0.000000,0.000000,,,,,,,,,,,,,,,,,,,,,,,,,,,,,,,,,,,,,,,,,,,,,,,,,,,,,,,,,,,,,,,,,,,,,,,,,,,,,,,,,,,,,,,,,,,,,,,,,,,,,,,,,,,,,,,,,,,,,,,,,,,,,,,
1598856689.520737,16.000000,0.000000,4216.025879,4215.641113,4217.436035,4216.794922,4210.769043,4208.717773,4212.563965,4216.666504,4218.333496,4217.563965,4266.794922,4955.897461,4213.974121,4221.794922,0.000000,2.000000,,,,0.000000,0.000000,0.000000,0.000000,0.000000,0.000000,0.000000,0.000000,0.000000,0.000000,0.000000,0.000000,0.000000,0.000000,0.000000,0.000000,8.000000,0.000000,8208.000000,8097.000000,8200.000000,12220.000000,7821.000000,8681.000000,8129.000000,8289.000000,7575.000000,,,,,,,,,,,,,,,,,,,,,,,,,,,,,,,,,,,,,,,,,,,,,,,,,,,,,,,,,,,,,,,,,,,,,,,,,,,,,,,,,,,,,,,,,,,,,,,,,,,,,,,,,,,,,,,,,,,,
1598856689.528617,17.000000,0.000000,4216.410156,4216.538574,4217.051270,4217.820313,4211.666504,4210.897461,4213.333496,4216.666504,4216.922852,4215.897461,4269.615234,4957.179688,4214.487305,4221.410156,0.000000,2.000000,,,,0.000000,0.000000,0.000000,0.000000,0.000000,0.000000,0.000000,0.000000,0.000000,0.000000,0.000000,0.000000,0.000000,0.000000,0.000000,0.000000,,,,,,,,,,,,,,,,,,,,,,,,,,,,,,,,,,,,,,,,,,,,,,,,,,,,,,,,,,,,,,,,,,,,,,,,,,,,,,,,,,,,,,,,,,,,,,,,,,,,,,,,,,,,,,,,,,,,,,,,,,,,,,,
1598856689.536498,18.000000,0.000000,4217.179688,4217.563965,4211.538574,4216.410156,4213.077148,4216.410156,4213.205078,4216.666504,4218.589844,4215.769043,4268.077148,4956.025879,4216.025879,4220.384766,0.000000,2.000000,,,,0.000000,0.000000,0.000000,0.000000,0.000000,0.000000,0.000000,0.000000,0.000000,0.000000,0.000000,0.000000,0.000000,0.000000,0.000000,0.000000,9.000000,0.000000,8203.000000,8095.000000,8201.000000,12218.000000,7802.000000,8666.000000,8129.000000,8290.000000,7575.000000,,,,,,,,,,,,,,,,,,,,,,,,,,,,,,,,,,,,,,,,,,,,,,,,,,,,,,,,,,,,,,,,,,,,,,,,,,,,,,,,,,,,,,,,,,,,,,,,,,,,,,,,,,,,,,,,,,,,
1598856689.544379,19.000000,0.000000,4216.666504,4216.410156,4213.717773,4217.179688,4214.102539,4214.230957,4210.000000,4216.666504,4217.179688,4220.769043,4268.205078,4951.794922,4216.922852,4218.717773,0.000000,2.000000,,,,0.000000,0.000000,0.000000,0.000000,0.000000,0.000000,0.000000,0.000000,0.000000,0.000000,0.000000,0.000000,0.000000,0.000000,0.000000,0.000000,,,,,,,,,,,,,,,,,,,,,,,,,,,,,,,,,,,,,,,,,,,,,,,,,,,,,,,,,,,,,,,,,,,,,,,,,,,,,,,,,,,,,,,,,,,,,,,,,,,,,,,,,,,,,,,,,,,,,,,,,,,,,,,
1598856689.552260,20.000000,0.000000,4216.794922,4215.000000,4218.205078,4217.563965,4213.717773,4209.615234,4209.230957,4216.666504,4215.769043,4223.717773,4270.384766,4952.051270,4218.205078,4220.384766,0.000000,2.000000,,,,0.000000,0.000000,0.000000,0.000000,0.000000,0.000000,0.000000,0.000000,0.000000,0.000000,0.000000,0.000000,0.000000,0.000000,0.000000,0.000000,10.000000,0.000000,8205.000000,8094.000000,8198.000000,12224.000000,7815.000000,8677.000000,8128.000000,8295.000000,7573.000000,,,,,,,,,,,,,,,,,,,,,,,,,,,,,,,,,,,,,,,,,,,,,,,,,,,,,,,,,,,,,,,,,,,,,,,,,,,,,,,,,,,,,,,,,,,,,,,,,,,,,,,,,,,,,,,,,,,,
1598856689.560141,21.000000,0.000000,4217.436035,4214.871582,4217.179688,4216.538574,4213.461426,4211.538574,4212.051270,4216.666504,4217.179688,4217.948730,4268.589844,4955.769043,4217.820313,4222.179688,0.000000,2.000000,,,,0.000000,0.000000,0.000000,0.000000,0.000000,0.000000,0.000000,0.000000,0.000000,0.000000,0.000000,0.000000,0.000000,0.000000,0.000000,0.000000,,,,,,,,,,,,,,,,,,,,,,,,,,,,,,,,,,,,,,,,,,,,,,,,,,,,,,,,,,0.013041,0.007128,0.004051,0.003113,0.006601,0.009562,0.004185,0.007058,0.006544,0.005998,0.023666,0.014515,0.018669,0.019315,0.015365,0.011633,0.014487,0.036116,0.021235,0.015387,0.017379,0.019563,0.020271,0.027751,0.017297,0.028716,0.023582,0.037503,0.019190,0.029528,0.023409,0.021027,0.018961,0.022111,0.019153,0.003497,0.003381,0.000749,0.000844,0.000527,0.017274,0.012329,0.015511,0.018247,0.025500,0.041166,0.044766,0.015569,0.018566,0.033436,0.004591,0.012720,0.005402,0.019177,0.011106,0.014763,0.023364,0.016230,0.017614,0.026215,0.016052,0.029075,0.026458,0.029666,0.036684,0.025537,0.048901,0.018653,0.022552,0.019626
1598856689.567922,22.000000,0.000000,4216.922852,4216.282227,4217.307617,4216.538574,4213.974121,4212.820313,4211.666504,4216.666504,4218.589844,4217.179688,4270.256348,4955.769043,4217.436035,4222.820313,0.000000,2.000000,,,,0.000000,0.000000,0.000000,0.000000,0.000000,0.000000,0.000000,0.000000,0.000000,0.000000,0.000000,0.000000,0.000000,0.000000,0.000000,0.000000,11.000000,0.000000,8207.000000,8096.000000,8204.000000,12219.000000,7806.000000,8682.000000,8124.000000,8290.000000,7572.000000,,,,,,,,,,,,,,,,,,,,,,,,,,,,,,,,,,,,,,,,,,,,,,,,,,,,,,,,,,,,,,,,,,,,,,,,,,,,,,,,,,,,,,,,,,,,,,,,,,,,,,,,,,,,,,,,,,,,
1598856689.575803,23.000000,0.000000,4216.538574,4216.666504,4219.615234,4219.102539,4215.000000,4213.974121,4210.512695,4216.666504,4216.666504,4221.666504,4271.410156,4954.615234,4216.025879,4223.077148,0.000000,2.000000,,,,0.000000,0.000000,0.000000,0.000000,0.000000,0.000000,0.000000,0.000000,0.000000,0.000000,0.000000,0.000000,0.000000,0.000000,0.000000,0.000000,,,,,,,,,,,,,,,,,,,,,,,,,,,,,,,,,,,,,,,,,,,,,,,,,,,,,,,,,,,,,,,,,,,,,,,,,,,,,,,,,,,,,,,,,,,,,,,,,,,,,,,,,,,,,,,,,,,,,,,,,,,,,,,
1598856689.583683,24.000000,0.000000,4216.666504,4215.769043,4216.538574,4217.948730,4215.000000,4216.153809,4209.871582,4216.666504,4215.641113,4220.256348,4268.974121,4957.692383,4216.922852,4223.077148,0.000000,2.000000,,,,0.000000,0.000000,0.000000,0.000000,0.000000,0.000000,0.000000,0.000000,0.000000,0.000000,0.000000,0.000000,0.000000,0.000000,0.000000,0.000000,12.000000,0.000000,8205.000000,8097.000000,8202.000000,12219.000000,7816.000000,8667.000000,8127.000000,8292.000000,7572.000000,,,,,,,,,,,,,,,,,,,,,,,,,,,,,,,,,,,,,,,,,,,,,,,,,,,,,,,,,,,,,,,,,,,,,,,,,,,,,,,,,,,,,,,,,,,,,,,,,,,,,,,,,,,,,,,,,,,,
1598856689.591564,25.000000,0.000000,4216.922852,4216.538574,4214.487305,4215.512695,4212.820313,4215.256348,4210.512695,4216.666504,4219.358887,4219.743652,4269.358887,4959.487305,4217.563965,4220.000000,0.000000,2.000000,,,,0.000000,0.000000,0.000000,0.000000,0.000000,0.000000,0.000000,0.000000,0.000000,0.000000,0.000000,0.000000,0.000000,0.000000,0.000000,0.000000,,,,,,,,,,,,,,,,,,,,,,,,,,,,,,,,,,,,,,,,,,,,,,,,,,,,,,,,,,,,,,,,,,,,,,,,,,,,,,,,,,,,,,,,,,,,,,,,,,,,,,,,,,,,,,,,,,,,,,,,,,,,,,,
1598856689.599445,26.000000,0.000000,4215.897461,4217.307617,4217.179688,4215.641113,4210.384766,4213.077148,4209.487305,4216.666504,4220.769043,4221.282227,4270.128418,4957.563965,4216.666504,4221.666504,0.000000,2.000000,,,,0.000000,0.000000,0.000000,0.000000,0.000000,0.000000,0.000000,0.000000,0.000000,0.000000,0.000000,0.000000,0.000000,0.000000,0.000000,0.000000,13.000000,0.000000,8209.000000,8097.000000,8199.000000,12215.000000,7817.000000,8677.000000,8129.000000,8287.000000,7576.000000,,,,,,,,,,,,,,,,,,,,,,,,,,,,,,,,,,,,,,,,,,,,,,,,,,,,,,,,,,,,,,,,,,,,,,,,,,,,,,,,,,,,,,,,,,,,,,,,,,,,,,,,,,,,,,,,,,,,
1598856689.607325,27.000000,0.000000,4215.641113,4216.153809,4218.333496,4215.769043,4214.871582,4213.589844,4209.615234,4216.666504,4215.897461,4220.128418,4269.358887,4953.974121,4216.153809,4225.000000,0.000000,2.000000,,,,0.000000,0.000000,0.000000,0.000000,0.000000,0.000000,0.000000,0.000000,0.000000,0.000000,0.000000,0.000000,0.000000,0.000000,0.000000,0.000000,,,,,,,,,,,,,,,,,,,,,,,,,,,,,,,,,,,,,,,,,,,,,,,,,,,,,,,,,,,,,,,,,,,,,,,,,,,,,,,,,,,,,,,,,,,,,,,,,,,,,,,,,,,,,,,,,,,,,,,,,,,,,,,
1598856689.615206,28.000000,0.000000,4216.666504,4216.025879,4217.436035,4215.256348,4218.846191,4212.436035,4211.282227,4216.666504,4214.102539,4218.846191,4270.384766,4955.769043,4219.102539,4223.589844,0.000000,2.000000,,,,0.000000,0.000000,0.000000,0.000000,0.000000,0.000000,0.000000,0.000000,0.000000,0.000000,0.000000,0.000000,0.000000,0.000000,0.000000,0.000000,14.000000,0.000000,8208.000000,8095.000000,8200.000000,12212.000000,7825.000000,8691.000000,8126.000000,8292.000000,7574.000000,,,,,,,,,,,,,,,,,,,,,,,,,,,,,,,,,,,,,,,,,,,,,,,,,,,,,,,,,,,,,,,,,,,,,,,,,,,,,,,,,,,,,,,,,,,,,,,,,,,,,,,,,,,,,,,,,,,,
1598856689.623087,29.000000,0.000000,4217.179688,4217.563965,4216.538574,4214.487305,4214.230957,4211.410156,4212.179688,4216.666504,4218.333496,4220.769043,4268.205078,4957.563965,4218.205078,4219.358887,0.000000,2.000000,,,,0.000000,0.000000,0.000000,0.000000,0.000000,0.000000,0.000000,0.000000,0.000000,0.000000,0.000000,0.000000,0.000000,0.000000,0.000000,0.000000,,,,,,,,,,,,,,,,,,,,,,,,,,,,,,,,,,,,,,,,,,,,,,,,,,,,,,,,,,,,,,,,,,,,,,,,,,,,,,,,,,,,,,,,,,,,,,,,,,,,,,,,,,,,,,,,,,,,,,,,,,,,,,,
1598856689.630967,30.000000,0.000000,4216.025879,4216.410156,4217.692383,4215.128418,4210.769043,4212.307617,4211.153809,4216.666504,4218.461426,4220.641113,4267.051270,4956.794922,4214.102539,4219.487305,0.000000,2.000000,,,,0.000000,0.000000,0.000000,0.000000,0.000000,0.000000,0.000000,0.000000,0.000000,0.000000,0.000000,0.000000,0.000000,0.000000,0.000000,0.000000,15.000000,0.000000,8206.000000,8094.000000,8199.000000,12218.000000,7818.000000,8677.000000,8129.000000,8290.000000,7574.000000,,,,,,,,,,,,,,,,,,,,,,,,,,,,,,,,,,,,,,,,,,,,,,,,,,,,,,,,,,,,,,,,,,,,,,,,,,,,,,,,,,,,,,,,,,,,,,,,,,,,,,,,,,,,,,,,,,,,
1598856689.638848,31.000000,0.000000,4215.641113,4213.717773,4218.205078,4216.794922,4212.436035,4212.692383,4210.769043,4216.666504,4216.666504,4218.461426,4271.282227,4955.512695,4214.871582,4221.538574,0.000000,2.000000,,,,0.000000,0.000000,0.000000,0.000000,0.000000,0.000000,0.000000,0.000000,0.000000,0.000000,0.000000,0.000000,0.000000,0.000000,0.000000,0.000000,,,,,,,,,,,,,,,,,,,,,,,,,,,,,,,,,,,,,,,,,,,,,,,,,,,,,,,,,,,,,,,,,,,,,,,,,,,,,,,,,,,,,,,,,,,,,,,,,,,,,,,,,,,,,,,,,,,,,,,,,,,,,,,
1598856689.646629,32.000000,0.000000,4217.563965,4214.358887,4216.794922,4217.307617,4214.102539,4211.666504,4211.410156,4216.666504,4218.461426,4218.974121,4272.051270,4957.692383,4217.563965,4223.461426,0.000000,2.000000,,,,0.000000,0.000000,0.000000,0.000000,0.000000,0.000000,0.000000,0.000000,0.000000,0.000000,0.000000,0.000000,0.000000,0.000000,0.000000,0.000000,16.000000,0.000000,8207.000000,8093.000000,8196.000000,12220.000000,7821.000000,8676.000000,8130.000000,8290.000000,7572.000000,,,,,,,,,,,,,,,,,,,,,,,,,,,,,,,,,,,,,,,,,,,,,,,,,,,,,,,,,,,,,,,,,,,,,,,,,,,,,,,,,,,,,,,,,,,,,,,,,,,,,,,,,,,,,,,,,,,,
1598856689.654510,33.000000,0.000000,4217.563965,4215.384766,4215.256348,4215.641113,4213.717773,4212.436035,4211.282227,4216.666504,4217.948730,4220.641113,4268.205078,4956.794922,4216.922852,4222.051270,0.000000,2.000000,,,,0.000000,0.000000,0.000000,0.000000,0.000000,0.000000,0.000000,0.000000,0.000000,0.000000,0.000000,0.000000,0.000000,0.000000,0.000000,0.000000,,,,,,,,,,,,,,,,,,,,,,,,,,,,,,,,,,,,,,,,,,,,,,,,,,,,,,,,,,,,,,,,,,,,,,,,,,,,,,,,,,,,,,,,,,,,,,,,,,,,,,,,,,,,,,,,,,,,,,,,,,,,,,,
1598856689.662390,34.000000,0.000000,4216.025879,4215.000000,4218.077148,4217.051270,4212.563965,4214.230957,4211.538574,4216.666504,4216.538574,4219.871582,4267.179688,4956.282227,4214.743652,4220.000000,0.000000,2.000000,,,,0.000000,0.000000,0.000000,0.000000,0.000000,0.000000,0.000000,0.000000,0.000000,0.000000,0.000000,0.000000,0.000000,0.000000,0.000000,0.000000,17.000000,0.000000,8206.000000,8091.000000,8200.000000,12216.000000,7801.000000,8684.000000,8127.000000,8291.000000,7573.000000,,,,,,,,,,,,,,,,,,,,,,,,,,,,,,,,,,,,,,,,,,,,,,,,,,,,,,,,,,,,,,,,,,,,,,,,,,,,,,,,,,,,,,,,,,,,,,,,,,,,,,,,,,,,,,,,,,,,
1598856689.670271,35.000000,0.000000,4216.922852,4215.512695,4218.717773,4218.205078,4211.794922,4212.436035,4211.538574,4216.666504,4216.666504,4220.000000,4269.230957,4958.717773,4215.641113,4221.153809,0.000000,2.000000,,,,0.000000,0.000000,0.000000,0.000000,0.000000,0.000000,0.000000,0.000000,0.000000,0.000000,0.000000,0.000000,0.000000,0.000000,0.000000,0.000000,,,,,,,,,,,,,,,,,,,,,,,,,,,,,,,,,,,,,,,,,,,,,,,,,,,,,,,,,,,,,,,,,,,,,,,,,,,,,,,,,,,,,,,,,,,,,,,,,,,,,,,,,,,,,,,,,,,,,,,,,,,,,,,
1598856689.678152,36.000000,0.000000,4217.563965,4216.666504,4217.436035,4217.436035,4212.563965,4211.794922,4209.871582,4216.666504,4215.641113,4219.615234,4270.256348,4958.974121,4216.410156,4222.820313,0.000000,2.000000,,,,0.000000,0.000000,0.000000,0.000000,0.000000,0.000000,0.000000,0.000000,0.000000,0.000000,0.000000,0.000000,0.000000,0.000000,0.000000,0.000000,18.000000,0.000000,8205.000000,8089.000000,8198.000000,12209.000000,7821.000000,8686.000000,8128.000000,8289.000000,7572.000000,,,,,,,,,,,,,,,,,,,,,,,,,,,,,,,,,,,,,,,,,,,,,,,,,,,,,,,,,,,,,,,,,,,,,,,,,,,,,,,,,,,,,,,,,,,,,,,,,,,,,,,,,,,,,,,,,,,,
1598856689.686032,37.000000,0.000000,4215.512695,4216.025879,4215.384766,4216.025879,4215.128418,4213.461426,4209.615234,4216.666504,4215.897461,4217.948730,4270.512695,4957.436035,4217.820313,4222.436035,0.000000,2.000000,,,,0.000000,0.000000,0.000000,0.000000,0.000000,0.000000,0.000000,0.000000,0.000000,0.000000,0.000000,0.000000,0.000000,0.000000,0.000000,0.000000,,,,,,,,,,,,,,,,,,,,,,,,,,,,,,,,,,,,,,,,,,,,,,,,,,,,,,,,,,0.013145,0.007077,0.004192,0.003579,0.006477,0.008512,0.004037,0.008226,0.006752,0.005832,0.027253,0.013274,0.020209,0.019432,0.015402,0.012812,0.010803,0.036275,0.019849,0.015514,0.015177,0.019218,0.017975,0.029399,0.018397,0.024942,0.025563,0.036861,0.018459,0.027245,0.022527,0.018500,0.015730,0.017400,0.020427,0.003117,0.004049,0.000848,0.001025,0.000680,0.017314,0.014118,0.016362,0.020471,0.026277,0.043943,0.043995,0.018472,0.018951,0.031520,0.005092,0.012880,0.005947,0.018809,0.009839,0.016844,0.026532,0.016707,0.020144,0.027292,0.016847,0.025412,0.029473,0.029597,0.035084,0.027611,0.056299,0.017110,0.022868,0.019233
1598856689.693913,38.000000,0.000000,4213.846191,4215.769043,4214.358887,4216.922852,4217.692383,4216.794922,4211.025879,4216.666504,4218.077148,4218.846191,4271.153809,4957.948730,4216.538574,4222.051270,0.000000,2.000000,,,,0.000000,0.000000,0.000000,0.000000,0.000000,0.000000,0.000000,0.000000,0.000000,0.000000,0.000000,0.000000,0.000000,0.000000,0.000000,0.000000,19.000000,0.000000,8206.000000,8093.000000,8206.000000,12219.000000,7802.000000,8676.000000,8128.000000,8289.000000,7575.000000,,,,,,,,,,,,,,,,,,,,,,,,,,,,,,,,,,,,,,,,,,,,,,,,,,,,,,,,,,,,,,,,,,,,,,,,,,,,,,,,,,,,,,,,,,,,,,,,,,,,,,,,,,,,,,,,,,,,
1598856689.701794,39.000000,0.000000,4214.743652,4216.794922,4215.897461,4217.436035,4216.794922,4217.692383,4212.051270,4216.666504,4219.102539,4220.384766,4272.563965,4959.358887,4217.307617,4223.974121,0.000000,2.000000,,,,0.000000,0.000000,0.000000,0.000000,0.000000,0.000000,0.000000,0.000000,0.000000,0.000000,0.000000,0.000000,0.000000,0.000000,0.000000,0.000000,,,,,,,,,,,,,,,,,,,,,,,,,,,,,,,,,,,,,,,,,,,,,,,,,,,,,,,,,,,,,,,,,,,,,,,,,,,,,,,,,,,,,,,,,,,,,,,,,,,,,,,,,,,,,,,,,,,,,,,,,,,,,,,
1598856689.709774,40.000000,0.000000,4214.743652,4215.384766,4218.717773,4217.563965,4213.717773,4215.384766,4212.051270,4216.666504,4215.512695,4219.102539,4270.384766,4958.077148,4216.025879,4222.051270,0.000000,2.000000,,,,0.000000,0.000000,0.000000,0.000000,0.000000,0.000000,0.000000,0.000000,0.000000,0.000000,0.000000,0.000000,0.000000,0.000000,0.000000,0.000000,20.000000,0.000000,8210.000000,8095.000000,8203.000000,12214.000000,7810.000000,8681.000000,8128.000000,8288.000000,7572.000000,,,,,,,,,,,,,,,,,,,,,,,,,,,,,,,,,,,,,,,,,,,,,,,,,,,,,,,,,,,,,,,,,,,,,,,,,,,,,,,,,,,,,,,,,,,,,,,,,,,,,,,,,,,,,,,,,,,,
1598856689.717655,41.000000,0.000000,4214.102539,4214.102539,4216.410156,4216.410156,4213.717773,4210.769043,4210.256348,4216.666504,4214.871582,4219.230957,4268.077148,4958.077148,4216.794922,4221.025879,0.000000,2.000000,,,,0.000000,0.000000,0.000000,0.000000,0.000000,0.000000,0.000000,0.000000,0.000000,0.000000,0.000000,0.000000,0.000000,0.000000,0.000000,0.000000,,,,,,,,,,,,,,,,,,,,,,,,,,,,,,,,,,,,,,,,,,,,,,,,,,,,,,,,,,,,,,,,,,,,,,,,,,,,,,,,,,,,,,,,,,,,,,,,,,,,,,,,,,,,,,,,,,,,,,,,,,,,,,,
1598856689.725536,42.000000,0.000000,4214.871582,4215.897461,4214.743652,4216.794922,4216.922852,4209.487305,4211.538574,4216.666504,4220.128418,4220.384766,4269.230957,4957.307617,4218.461426,4221.025879,0.000000,2.000000,,,,0.000000,0.000000,0.000000,0.000000,0.000000,0.000000,0.000000,0.000000,0.000000,0.000000,0.000000,0.000000,0.000000,0.000000,0.000000,0.000000,21.000000,0.000000,8207.000000,8092.000000,8197.000000,12217.000000,7811.000000,8675.000000,8128.000000,8291.000000,7572.000000,,,,,,,,,,,,,,,,,,,,,,,,,,,,,,,,,,,,,,,,,,,,,,,,,,,,,,,,,,,,,,,,,,,,,,,,,,,,,,,,,,,,,,,,,,,,,,,,,,,,,,,,,,,,,,,,,,,,
1598856689.733416,43.000000,0.000000,4214.615234,4216.282227,4216.666504,4217.692383,4215.384766,4211.410156,4212.051270,4216.666504,4220.384766,4218.333496,4269.358887,4955.000000,4218.333496,4219.743652,0.000000,2.000000,,,,0.000000,0.000000,0.000000,0.000000,0.000000,0.000000,0.000000,0.000000,0.000000,0.000000,0.000000,0.000000,0.000000,0.000000,0.000000,0.000000,,,,,,,,,,,,,,,,,,,,,,,,,,,,,,,,,,,,,,,,,,,,,,,,,,,,,,,,,,,,,,,,,,,,,,,,,,,,,,,,,,,,,,,,,,,,,,,,,,,,,,,,,,,,,,,,,,,,,,,,,,,,,,,
1598856689.741297,44.000000,0.000000,4213.974121,4217.051270,4216.153809,4217.820313,4212.307617,4212.820313,4209.615234,4216.666504,4217.563965,4216.410156,4268.077148,4952.436035,4216.538574,4218.717773,0.000000,2.000000,,,,0.000000,0.000000,0.000000,0.000000,0.000000,0.000000,0.000000,0.000000,0.000000,0.000000,0.000000,0.000000,0.000000,0.000000,0.000000,0.000000,22.000000,0.000000,8207.000000,8100.000000,8200.000000,12211.000000,7800.000000,8676.000000,8126.000000,8287.000000,7573.000000,,,,,,,,,,,,,,,,,,,,,,,,,,,,,,,,,,,,,,,,,,,,,,,,,,,,,,,,,,,,,,,,,,,,,,,,,,,,,,,,,,,,,,,,,,,,,,,,,,,,,,,,,,,,,,,,,,,,
1598856689.749178,45.000000,0.000000,4216.025879,4217.307617,4216.153809,4215.897461,4212.179688,4213.077148,4209.102539,4216.666504,4220.000000,4219.743652,4270.384766,4954.487305,4216.666504,4222.948730,0.000000,2.000000,,,,0.000000,0.000000,0.000000,0.000000,0.000000,0.000000,0.000000,0.000000,0.000000,0.000000,0.000000,0.000000,0.000000,0.000000,0.000000,0.000000,,,,,,,,,,,,,,,,,,,,,,,,,,,,,,,,,,,,,,,,,,,,,,,,,,,,,,,,,,,,,,,,,,,,,,,,,,,,,,,,,,,,,,,,,,,,,,,,,,,,,,,,,,,,,,,,,,,,,,,,,,,,,,,
1598856689.757058,46.000000,0.000000,4217.948730,4215.769043,4219.871582,4214.358887,4213.717773,4213.846191,4212.436035,4216.666504,4221.922852,4222.948730,4270.000000,4957.436035,4216.666504,4222.692383,0.000000,2.000000,,,,0.000000,0.000000,0.000000,0.000000,0.000000,0.000000,0.000000,0.000000,0.000000,0.000000,0.000000,0.000000,0.000000,0.000000,0.000000,0.000000,23.000000,0.000000,8205.000000,8098.000000,8203.000000,12217.000000,7816.000000,8670.000000,8126.000000,8289.000000,7571.000000,,,,,,,,,,,,,,,,,,,,,,,,,,,,,,,,,,,,,,,,,,,,,,,,,,,,,,,,,,,,,,,,,,,,,,,,,,,,,,,,,,,,,,,,,,,,,,,,,,,,,,,,,,,,,,,,,,,,
1598856689.764839,47.000000,0.000000,4216.794922,4215.000000,4218.205078,4215.512695,4214.358887,4212.820313,4213.205078,4216.666504,4217.179688,4221.538574,4267.948730,4956.922852,4216.794922,4219.743652,0.000000,2.000000,,,,0.000000,0.000000,0.000000,0.000000,0.000000,0.000000,0.000000,0.000000,0.000000,0.000000,0.000000,0.000000,0.000000,0.000000,0.000000,0.000000,,,,,,,,,,,,,,,,,,,,,,,,,,,,,,,,,,,,,,,,,,,,,,,,,,,,,,,,,,,,,,,,,,,,,,,,,,,,,,,,,,,,,,,,,,,,,,,,,,,,,,,,,,,,,,,,,,,,,,,,,,,,,,,
1598856689.772720,48.000000,0.000000,4215.641113,4216.666504,4212.692383,4215.897461,4212.179688,4213.205078,4212.179688,4216.666504,4214.743652,4220.512695,4268.974121,4955.000000,4216.922852,4220.384766,0.000000,2.000000,,,,0.000000,0.000000,0.000000,0.000000,0.000000,0.000000,0.000000,0.000000,0.000000,0.000000,0.000000,0.000000,0.000000,0.000000,0.000000,0.000000,24.000000,0.000000,8201.000000,8096.000000,8191.000000,12219.000000,7816.000000,8678.000000,8128.000000,8271.000000,7575.000000,,,,,,,,,,,,,,,,,,,,,,,,,,,,,,,,,,,,,,,,,,,,,,,,,,,,,,,,,,,,,,,,,,,,,,,,,,,,,,,,,,,,,,,,,,,,,,,,,,,,,,,,,,,,,,,,,,,,
1598856689.780601,49.000000,0.000000,4216.794922,4216.666504,4216.666504,4215.256348,4211.666504,4213.461426,4215.128418,4216.794922,4217.820313,4221.538574,4271.025879,4958.589844,4214.615234,4220.384766,0.000000,2.000000,,,,0.000000,0.000000,0.000000,0.000000,0.000000,0.000000,0.000000,0.000000,0.000000,0.000000,0.000000,0.000000,0.000000,0.000000,0.000000,0.000000,,,,,,,,,,,,,,,,,,,,,,,,,,,,,,,,,,,,,,,,,,,,,,,,,,,,,,,,,,,,,,,,,,,,,,,,,,,,,,,,,,,,,,,,,,,,,,,,,,,,,,,,,,,,,,,,,,,,,,,,,,,,,,,
1598856689.788481,50.000000,0.000000,4217.436035,4215.256348,4220.384766,4214.358887,4214.102539,4212.948730,4216.282227,4216.538574,4217.436035,4222.436035,4269.102539,4958.717773,4215.641113,4217.692383,0.000000,2.000000,,,,0.000000,0.000000,0.000000,0.000000,0.000000,0.000000,0.000000,0.000000,0.000000,0.000000,0.000000,0.000000,0.000000,0.000000,0.000000,0.000000,25.000000,0.000000,8203.000000,8096.000000,8199.000000,12211.000000,7813.000000,8686.000000,8130.000000,8292.000000,7572.000000,,,,,,,,,,,,,,,,,,,,,,,,,,,,,,,,,,,,,,,,,,,,,,,,,,,,,,,,,,,,,,,,,,,,,,,,,,,,,,,,,,,,,,,,,,,,,,,,,,,,,,,,,,,,,,,,,,,,
1598856689.796362,51.000000,0.000000,4217.179688,4215.769043,4218.333496,4216.153809,4213.974121,4212.051270,4212.563965,4216.794922,4216.538574,4220.641113,4268.205078,4955.897461,4219.102539,4219.230957,0.000000,2.000000,,,,0.000000,0.000000,0.000000,0.000000,0.000000,0.000000,0.000000,0.000000,0.000000,0.000000,0.000000,0.000000,0.000000,0.000000,0.000000,0.000000,,,,,,,,,,,,,,,,,,,,,,,,,,,,,,,,,,,,,,,,,,,,,,,,,,,,,,,,,,,,,,,,,,,,,,,,,,,,,,,,,,,,,,,,,,,,,,,,,,,,,,,,,,,,,,,,,,,,,,,,,,,,,,,
1598856689.804243,52.000000,0.000000,4216.922852,4216.153809,4216.282227,4216.538574,4213.589844,4211.538574,4210.512695,4217.436035,4218.461426,4220.769043,4269.615234,4954.743652,4218.205078,4222.948730,0.000000,2.000000,,,,0.000000,0.000000,0.000000,0.000000,0.000000,0.000000,0.000000,0.000000,0.000000,0.000000,0.000000,0.000000,0.000000,0.000000,0.000000,0.000000,26.000000,0.000000,8205.000000,8101.000000,8198.000000,12222.000000,7820.000000,8674.000000,8128.000000,8283.000000,7570.000000,,,,,,,,,,,,,,,,,,,,,,,,,,,,,,,,,,,,,,,,,,,,,,,,,,,,,,,,,,,,,,,,,,,,,,,,,,,,,,,,,,,,,,,,,,,,,,,,,,,,,,,,,,,,,,,,,,,,
1598856689.812123,53.000000,0.000000,4216.538574,4215.769043,4218.333496,4215.000000,4215.384766,4214.358887,4212.948730,4217.307617,4219.871582,4222.307617,4269.102539,4955.512695,4216.153809,4222.051270,0.000000,2.000000,,,,0.000000,0.000000,0.000000,0.000000,0.000000,0.000000,0.000000,0.000000,0.000000,0.000000,0.000000,0.000000,0.000000,0.000000,0.000000,0.000000,,,,,,,,,,,,,,,,,,,,,,,,,,,,,,,,,,,,,,,,,,,,,,,,,,,,,,,,,,0.012755,0.006696,0.004677,0.004114,0.006364,0.007610,0.004252,0.009669,0.006762,0.005689,0.029191,0.012722,0.021555,0.019124,0.016554,0.014740,0.010702,0.032995,0.017358,0.015849,0.014144,0.021029,0.015675,0.030746,0.019743,0.021504,0.026655,0.034112,0.018829,0.025082,0.020976,0.016901,0.014149,0.013163,0.021986,0.002960,0.004467,0.000937,0.001142,0.000806,0.016256,0.016059,0.016985,0.023281,0.026490,0.044167,0.039106,0.021250,0.019921,0.028962,0.006202,0.013118,0.006633,0.018204,0.009347,0.018561,0.028873,0.017337,0.023451,0.027772,0.017503,0.023172,0.034079,0.029676,0.033158,0.026912,0.056696,0.016927,0.024477,0.018988
1598856689.820004,54.000000,0.000000,4216.794922,4216.025879,4216.922852,4212.436035,4213.974121,4216.666504,4212.692383,4216.666504,4217.948730,4223.717773,4269.230957,4956.282227,4218.461426,4221.025879,0.000000,2.000000,,,,0.000000,0.000000,0.000000,0.000000,0.000000,0.000000,0.000000,0.000000,0.000000,0.000000,0.000000,0.000000,0.000000,0.000000,0.000000,0.000000,27.000000,0.000000,8206.000000,8093.000000,8204.000000,12215.000000,7803.000000,8671.000000,8131.000000,8294.000000,7572.000000,,,,,,,,,,,,,,,,,,,,,,,,,,,,,,,,,,,,,,,,,,,,,,,,,,,,,,,,,,,,,,,,,,,,,,,,,,,,,,,,,,,,,,,,,,,,,,,,,,,,,,,,,,,,,,,,,,,,
1598856689.827885,55.000000,0.000000,4216.922852,4216.025879,4216.282227,4214.487305,4212.179688,4214.743652,4210.128418,4216.666504,4216.153809,4222.051270,4268.205078,4957.307617,4218.205078,4220.641113,0.000000,2.000000,,,,0.000000,0.000000,0.000000,0.000000,0.000000,0.000000,0.000000,0.000000,0.000000,0.000000,0.000000,0.000000,0.000000,0.000000,0.000000,0.000000,,,,,,,,,,,,,,,,,,,,,,,,,,,,,,,,,,,,,,,,,,,,,,,,,,,,,,,,,,,,,,,,,,,,,,,,,,,,,,,,,,,,,,,,,,,,,,,,,,,,,,,,,,,,,,,,,,,,,,,,,,,,,,,
1598856689.835665,56.000000,0.000000,4216.410156,4215.897461,4218.717773,4216.666504,4214.358887,4211.538574,4210.512695,4216.794922,4217.436035,4219.358887,4268.589844,4957.307617,4216.282227,4221.025879,0.000000,2.000000,,,,0.000000,0.000000,0.000000,0.000000,0.000000,0.000000,0.000000,0.000000,0.000000,0.000000,0.000000,0.000000,0.000000,0.000000,0.000000,0.000000,28.000000,0.000000,8206.000000,8096.000000,8198.000000,12212.000000,7811.000000,8677.000000,8125.000000,8291.000000,7574.000000,,,,,,,,,,,,,,,,,,,,,,,,,,,,,,,,,,,,,,,,,,,,,,,,,,,,,,,,,,,,,,,,,,,,,,,,,,,,,,,,,,,,,,,,,,,,,,,,,,,,,,,,,,,,,,,,,,,,
1598856689.843545,57.000000,0.000000,4216.666504,4215.512695,4218.974121,4215.897461,4213.461426,4213.077148,4211.922852,4216.666504,4216.794922,4220.512695,4270.000000,4956.922852,4215.897461,4222.307617,0.000000,2.000000,,,,0.000000,0.000000,0.000000,0.000000,0.000000,0.000000,0.000000,0.000000,0.000000,0.000000,0.000000,0.000000,0.000000,0.000000,0.000000,0.000000,,,,,,,,,,,,,,,,,,,,,,,,,,,,,,,,,,,,,,,,,,,,,,,,,,,,,,,,,,,,,,,,,,,,,,,,,,,,,,,,,,,,,,,,,,,,,,,,,,,,,,,,,,,,,,,,,,,,,,,,,,,,,,,
1598856689.851326,58.000000,0.000000,4217.436035,4216.025879,4215.641113,4215.897461,4211.410156,4212.948730,4213.077148,4216.666504,4215.769043,4221.025879,4271.153809,4956.794922,4218.717773,4223.333496,0.000000,2.000000,,,,0.000000,0.000000,0.000000,0.000000,0.000000,0.000000,0.000000,0.000000,0.000000,0.000000,0.000000,0.000000,0.000000,0.000000,0.000000,0.000000,29.000000,0.000000,8208.000000,8091.000000,8204.000000,12216.000000,7812.000000,8673.000000,8129.000000,8284.000000,7572.000000,,,,,,,,,,,,,,,,,,,,,,,,,,,,,,,,,,,,,,,,,,,,,,,,,,,,,,,,,,,,,,,,,,,,,,,,,,,,,,,,,,,,,,,,,,,,,,,,,,,,,,,,,,,,,,,,,,,,
1598856689.859207,59.000000,0.000000,4216.538574,4216.282227,4214.615234,4217.563965,4216.666504,4211.794922,4214.102539,4216.666504,4216.794922,4219.487305,4270.128418,4956.794922,4219.102539,4221.410156,0.000000,2.000000,,,,0.000000,0.000000,0.000000,0.000000,0.000000,0.000000,0.000000,0.000000,0.000000,0.000000,0.000000,0.000000,0.000000,0.000000,0.000000,0.000000,,,,,,,,,,,,,,,,,,,,,,,,,,,,,,,,,,,,,,,,,,,,,,,,,,,,,,,,,,,,,,,,,,,,,,,,,,,,,,,,,,,,,,,,,,,,,,,,,,,,,,,,,,,,,,,,,,,,,,,,,,,,,,,
1598856689.867087,60.000000,0.000000,4215.641113,4216.025879,4215.769043,4217.179688,4217.436035,4212.307617,4212.436035,4216.666504,4217.948730,4220.897461,4269.487305,4957.820313,4216.922852,4219.230957,0.000000,2.000000,,,,0.000000,0.000000,0.000000,0.000000,0.000000,0.000000,0.000000,0.000000,0.000000,0.000000,0.000000,0.000000,0.000000,0.000000,0.000000,0.000000,30.000000,0.000000,8206.000000,8098.000000,8206.000000,12223.000000,7808.000000,8690.000000,8128.000000,8289.000000,7575.000000,,,,,,,,,,,,,,,,,,,,,,,,,,,,,,,,,,,,,,,,,,,,,,,,,,,,,,,,,,,,,,,,,,,,,,,,,,,,,,,,,,,,,,,,,,,,,,,,,,,,,,,,,,,,,,,,,,,,
1598856689.874968,61.000000,0.000000,4216.538574,4215.897461,4216.282227,4216.410156,4211.538574,4211.922852,4212.051270,4216.666504,4217.820313,4222.307617,4269.743652,4956.666504,4213.974121,4217.820313,0.000000,2.000000,,,,0.000000,0.000000,0.000000,0.000000,0.000000,0.000000,0.000000,0.000000,0.000000,0.000000,0.000000,0.000000,0.000000,0.000000,0.000000,0.000000,,,,,,,,,,,,,,,,,,,,,,,,,,,,,,,,,,,,,,,,,,,,,,,,,,,,,,,,,,,,,,,,,,,,,,,,,,,,,,,,,,,,,,,,,,,,,,,,,,,,,,,,,,,,,,,,,,,,,,,,,,,,,,,
1598856689.882849,62.000000,0.000000,4216.666504,4215.769043,4217.436035,4214.615234,4211.410156,4212.179688,4211.538574,4216.666504,4217.051270,4221.794922,4271.666504,4957.948730,4216.410156,4220.000000,0.000000,2.000000,,,,0.000000,0.000000,0.000000,0.000000,0.000000,0.000000,0.000000,0.000000,0.000000,0.000000,0.000000,0.000000,0.000000,0.000000,0.000000,0.000000,31.000000,0.000000,8205.000000,8101.000000,8201.000000,12218.000000,7813.000000,8674.000000,8129.000000,8286.000000,7574.000000,,,,,,,,,,,,,,,,,,,,,,,,,,,,,,,,,,,,,,,,,,,,,,,,,,,,,,,,,,,,,,,,,,,,,,,,,,,,,,,,,,,,,,,,,,,,,,,,,,,,,,,,,,,,,,,,,,,,
1598856689.890729,63.000000,0.000000,4216.538574,4215.897461,4216.922852,4214.487305,4215.897461,4214.230957,4211.153809,4216.666504,4216.410156,4221.282227,4271.666504,4958.589844,4218.077148,4221.153809,0.000000,2.000000,,,,0.000000,0.000000,0.000000,0.000000,0.000000,0.000000,0.000000,0.000000,0.000000,0.000000,0.000000,0.000000,0.000000,0.000000,0.000000,0.000000,,,,,,,,,,,,,,,,,,,,,,,,,,,,,,,,,,,,,,,,,,,,,,,,,,,,,,,,,,,,,,,,,,,,,,,,,,,,,,,,,,,,,,,,,,,,,,,,,,,,,,,,,,,,,,,,,,,,,,,,,,,,,,,
1598856689.898610,64.000000,0.000000,4218.077148,4216.025879,4215.256348,4216.153809,4216.666504,4212.692383,4212.436035,4216.666504,4217.307617,4222.692383,4269.102539,4955.897461,4215.769043,4220.256348,0.000000,2.000000,,,,0.000000,0.000000,0.000000,0.000000,0.000000,0.000000,0.000000,0.000000,0.000000,0.000000,0.000000,0.000000,0.000000,0.000000,0.000000,0.000000,32.000000,0.000000,8205.000000,8092.000000,8201.000000,12214.000000,7823.000000,8676.000000,8127.000000,8288.000000,7573.000000,,,,,,,,,,,,,,,,,,,,,,,,,,,,,,,,,,,,,,,,,,,,,,,,,,,,,,,,,,,,,,,,,,,,,,,,,,,,,,,,,,,,,,,,,,,,,,,,,,,,,,,,,,,,,,,,,,,,
1598856689.906491,65.000000,0.000000,4216.922852,4215.641113,4215.384766,4215.897461,4215.897461,4211.282227,4215.256348,4216.666504,4218.333496,4219.615234,4267.436035,4954.358887,4215.897461,4220.769043,0.000000,2.000000,,,,0.000000,0.000000,0.000000,0.000000,0.000000,0.000000,0.000000,0.000000,0.000000,0.000000,0.000000,0.000000,0.000000,0.000000,0.000000,0.000000,,,,,,,,,,,,,,,,,,,,,,,,,,,,,,,,,,,,,,,,,,,,,,,,,,,,,,,,,,,,,,,,,,,,,,,,,,,,,,,,,,,,,,,,,,,,,,,,,,,,,,,,,,,,,,,,,,,,,,,,,,,,,,,
1598856689.914372,66.000000,0.000000,4215.128418,4216.153809,4213.974121,4215.512695,4214.487305,4212.307617,4212.436035,4216.666504,4217.307617,4216.153809,4269.871582,4957.692383,4219.358887,4224.743652,0.000000,2.000000,,,,0.000000,0.000000,0.000000,0.000000,0.000000,0.000000,0.000000,0.000000,0.000000,0.000000,0.000000,0.000000,0.000000,0.000000,0.000000,0.000000,33.000000,0.000000,8206.000000,8094.000000,8200.000000,12220.000000,7815.000000,8682.000000,8131.000000,8291.000000,7575.000000,,,,,,,,,,,,,,,,,,,,,,,,,,,,,,,,,,,,,,,,,,,,,,,,,,,,,,,,,,,,,,,,,,,,,,,,,,,,,,,,,,,,,,,,,,,,,,,,,,,,,,,,,,,,,,,,,,,,
1598856689.922153,67.000000,0.000000,4216.794922,4217.179688,4211.153809,4216.794922,4212.436035,4212.436035,4209.615234,4216.666504,4217.436035,4219.230957,4272.820313,4956.538574,4218.461426,4224.102539,0.000000,2.000000,,,,0.000000,0.000000,0.000000,0.000000,0.000000,0.000000,0.000000,0.000000,0.000000,0.000000,0.000000,0.000000,0.000000,0.000000,0.000000,0.000000,,,,,,,,,,,,,,,,,,,,,,,,,,,,,,,,,,,,,,,,,,,,,,,,,,,,,,,,,,,,,,,,,,,,,,,,,,,,,,,,,,,,,,,,,,,,,,,,,,,,,,,,,,,,,,,,,,,,,,,,,,,,,,,
1598856689.930033,68.000000,0.000000,4218.205078,4217.436035,4214.743652,4218.077148,4212.051270,4212.307617,4211.922852,4216.666504,4218.461426,4222.179688,4269.358887,4956.153809,4215.000000,4222.051270,0.000000,2.000000,,,,0.000000,0.000000,0.000000,0.000000,0.000000,0.000000,0.000000,0.000000,0.000000,0.000000,0.000000,0.000000,0.000000,0.000000,0.000000,0.000000,34.000000,0.000000,8208.000000,8095.000000,8198.000000,12216.000000,7815.000000,8684.000000,8126.000000,8289.000000,7572.000000,,,,,,,,,,,,,,,,,,,,,,,,,,,,,,,,,,,,,,,,,,,,,,,,,,,,,,,,,,,,,,,,,,,,,,,,,,,,,,,,,,,,,,,,,,,,,,,,,,,,,,,,,,,,,,,,,,,,
1598856689.937914,69.000000,0.000000,4217.436035,4216.666504,4216.794922,4217.820313,4212.948730,4211.025879,4211.922852,4216.666504,4217.179688,4221.794922,4265.897461,4958.077148,4216.025879,4222.692383,0.000000,2.000000,,,,0.000000,0.000000,0.000000,0.000000,0.000000,0.000000,0.000000,0.000000,0.000000,0.000000,0.000000,0.000000,0.000000,0.000000,0.000000,0.000000,,,,,,,,,,,,,,,,,,,,,,,,,,,,,,,,,,,,,,,,,,,,,,,,,,,,,,,,,,0.012289,0.006298,0.005265,0.004589,0.006289,0.007139,0.004969,0.011089,0.006476,0.005561,0.028857,0.012458,0.022802,0.018684,0.018472,0.016902,0.013865,0.026961,0.014491,0.016294,0.014622,0.025706,0.014279,0.031001,0.021546,0.018667,0.027151,0.029815,0.020091,0.022935,0.018955,0.015906,0.014163,0.009980,0.023446,0.002785,0.004392,0.000952,0.001137,0.000853,0.014616,0.018086,0.016945,0.026681,0.026893,0.042955,0.032001,0.023275,0.021126,0.026987,0.007776,0.014055,0.007531,0.017289,0.009642,0.020061,0.030349,0.018176,0.026473,0.028079,0.017412,0.023312,0.038568,0.029016,0.031274,0.024052,0.050389,0.017753,0.027070,0.018612
1598856689.945795,70.000000,0.000000,4216.538574,4215.000000,4215.384766,4216.410156,4214.487305,4210.000000,4210.256348,4216.666504,4215.641113,4220.256348,4270.897461,4958.205078,4217.051270,4222.051270,0.000000,2.000000,,,,0.000000,0.000000,0.000000,0.000000,0.000000,0.000000,0.000000,0.000000,0.000000,0.000000,0.000000,0.000000,0.000000,0.000000,0.000000,0.000000,35.000000,0.000000,8210.000000,8096.000000,8199.000000,12219.000000,7804.000000,8672.000000,8129.000000,8291.000000,7574.000000,,,,,,,,,,,,,,,,,,,,,,,,,,,,,,,,,,,,,,,,,,,,,,,,,,,,,,,,,,,,,,,,,,,,,,,,,,,,,,,,,,,,,,,,,,,,,,,,,,,,,,,,,,,,,,,,,,,,
1598856689.953676,71.000000,0.000000,4216.153809,4213.589844,4215.384766,4216.025879,4213.333496,4212.307617,4211.282227,4216.666504,4216.153809,4220.769043,4273.974121,4956.666504,4217.179688,4222.179688,0.000000,2.000000,,,,0.000000,0.000000,0.000000,0.000000,0.000000,0.000000,0.000000,0.000000,0.000000,0.000000,0.000000,0.000000,0.000000,0.000000,0.000000,0.000000,,,,,,,,,,,,,,,,,,,,,,,,,,,,,,,,,,,,,,,,,,,,,,,,,,,,,,,,,,,,,,,,,,,,,,,,,,,,,,,,,,,,,,,,,,,,,,,,,,,,,,,,,,,,,,,,,,,,,,,,,,,,,,,
1598856689.961557,72.000000,0.000000,4216.282227,4214.743652,4217.563965,4220.256348,4211.794922,4214.871582,4212.307617,4216.666504,4216.410156,4221.538574,4269.230957,4956.538574,4217.051270,4224.871582,0.000000,2.000000,,,,0.000000,0.000000,0.000000,0.000000,0.000000,0.000000,0.000000,0.000000,0.000000,0.000000,0.000000,0.000000,0.000000,0.000000,0.000000,0.000000,36.000000,0.000000,8205.000000,8095.000000,8205.000000,12219.000000,7816.000000,8687.000000,8127.000000,8291.000000,7570.000000,,,,,,,,,,,,,,,,,,,,,,,,,,,,,,,,,,,,,,,,,,,,,,,,,,,,,,,,,,,,,,,,,,,,,,,,,,,,,,,,,,,,,,,,,,,,,,,,,,,,,,,,,,,,,,,,,,,,
1598856689.969438,73.000000,0.000000,4217.436035,4216.538574,4216.025879,4218.205078,4212.692383,4212.051270,4210.384766,4216.666504,4216.922852,4222.307617,4267.563965,4956.666504,4218.461426,4222.820313,0.000000,2.000000,,,,0.000000,0.000000,0.000000,0.000000,0.000000,0.000000,0.000000,0.000000,0.000000,0.000000,0.000000,0.000000,0.000000,0.000000,0.000000,0.000000,,,,,,,,,,,,,,,,,,,,,,,,,,,,,,,,,,,,,,,,,,,,,,,,,,,,,,,,,,,,,,,,,,,,,,,,,,,,,,,,,,,,,,,,,,,,,,,,,,,,,,,,,,,,,,,,,,,,,,,,,,,,,,,
1598856689.977319,74.000000,0.000000,4216.922852,4216.025879,4216.666504,4213.077148,4214.743652,4211.922852,4210.897461,4216.666504,4217.820313,4221.410156,4270.256348,4957.179688,4218.717773,4217.692383,0.000000,2.000000,,,,0.000000,0.000000,0.000000,0.000000,0.000000,0.000000,0.000000,0.000000,0.000000,0.000000,0.000000,0.000000,0.000000,0.000000,0.000000,0.000000,37.000000,0.000000,8205.000000,8092.000000,8197.000000,12216.000000,7818.000000,8677.000000,8129.000000,8288.000000,7575.000000,,,,,,,,,,,,,,,,,,,,,,,,,,,,,,,,,,,,,,,,,,,,,,,,,,,,,,,,,,,,,,,,,,,,,,,,,,,,,,,,,,,,,,,,,,,,,,,,,,,,,,,,,,,,,,,,,,,,
1598856689.985200,75.000000,0.000000,4216.153809,4215.256348,4217.692383,4216.025879,4214.871582,4214.743652,4212.179688,4216.666504,4217.436035,4220.000000,4271.025879,4956.922852,4218.461426,4222.307617,0.000000,2.000000,,,,0.000000,0.000000,0.000000,0.000000,0.000000,0.000000,0.000000,0.000000,0.000000,0.000000,0.000000,0.000000,0.000000,0.000000,0.000000,0.000000,,,,,,,,,,,,,,,,,,,,,,,,,,,,,,,,,,,,,,,,,,,,,,,,,,,,,,,,,,,,,,,,,,,,,,,,,,,,,,,,,,,,,,,,,,,,,,,,,,,,,,,,,,,,,,,,,,,,,,,,,,,,,,,
1598856689.992980,76.000000,0.000000,4217.307617,4216.666504,4217.563965,4220.000000,4215.128418,4215.512695,4211.282227,4216.666504,4217.051270,4218.333496,4268.974121,4957.051270,4216.025879,4225.897461,0.000000,2.000000,,,,0.000000,0.000000,0.000000,0.000000,0.000000,0.000000,0.000000,0.000000,0.000000,0.000000,0.000000,0.000000,0.000000,0.000000,0.000000,0.000000,38.000000,0.000000,8207.000000,8090.000000,8204.000000,12216.000000,7824.000000,8683.000000,8127.000000,8290.000000,7573.000000,,,,,,,,,,,,,,,,,,,,,,,,,,,,,,,,,,,,,,,,,,,,,,,,,,,,,,,,,,,,,,,,,,,,,,,,,,,,,,,,,,,,,,,,,,,,,,,,,,,,,,,,,,,,,,,,,,,,
1598856690.000861,77.000000,0.000000,4217.948730,4216.794922,4216.538574,4216.410156,4213.333496,4214.102539,4208.589844,4216.666504,4217.948730,4216.666504,4268.077148,4959.102539,4216.538574,4223.461426,0.000000,2.000000,,,,0.000000,0.000000,0.000000,0.000000,0.000000,0.000000,0.000000,0.000000,0.000000,0.000000,0.000000,0.000000,0.000000,0.000000,0.000000,0.000000,,,,,,,,,,,,,,,,,,,,,,,,,,,,,,,,,,,,,,,,,,,,,,,,,,,,,,,,,,,,,,,,,,,,,,,,,,,,,,,,,,,,,,,,,,,,,,,,,,,,,,,,,,,,,,,,,,,,,,,,,,,,,,,
1598856690.008741,78.000000,0.000000,4216.794922,4215.128418,4216.794922,4215.128418,4213.077148,4213.974121,4211.538574,4216.666504,4218.077148,4217.692383,4268.974121,4958.077148,4217.436035,4221.794922,0.000000,2.000000,,,,0.000000,0.000000,0.000000,0.000000,0.000000,0.000000,0.000000,0.000000,0.000000,0.000000,0.000000,0.000000,0.000000,0.000000,0.000000,0.000000,39.000000,0.000000,8204.000000,8094.000000,8205.000000,12216.000000,7817.000000,8683.000000,8122.000000,8289.000000,7573.000000,,,,,,,,,,,,,,,,,,,,,,,,,,,,,,,,,,,,,,,,,,,,,,,,,,,,,,,,,,,,,,,,,,,,,,,,,,,,,,,,,,,,,,,,,,,,,,,,,,,,,,,,,,,,,,,,,,,,
1598856690.016621,79.000000,0.000000,4216.025879,4214.871582,4217.179688,4214.871582,4214.102539,4213.077148,4216.538574,4216.666504,4216.794922,4219.871582,4270.384766,4955.641113,4217.436035,4223.589844,0.000000,2.000000,,,,0.000000,0.000000,0.000000,0.000000,0.000000,0.000000,0.000000,0.000000,0.000000,0.000000,0.000000,0.000000,0.000000,0.000000,0.000000,0.000000,,,,,,,,,,,,,,,,,,,,,,,,,,,,,,,,,,,,,,,,,,,,,,,,,,,,,,,,,,,,,,,,,,,,,,,,,,,,,,,,,,,,,,,,,,,,,,,,,,,,,,,,,,,,,,,,,,,,,,,,,,,,,,,
1598856690.024401,80.000000,0.000000,4216.922852,4216.153809,4216.410156,4213.461426,4212.436035,4212.051270,4216.153809,4216.666504,4215.128418,4221.153809,4269.230957,4954.743652,4217.948730,4221.922852,0.000000,2.000000,,,,0.000000,0.000000,0.000000,0.000000,0.000000,0.000000,0.000000,0.000000,0.000000,0.000000,0.000000,0.000000,0.000000,0.000000,0.000000,0.000000,40.000000,0.000000,8211.000000,8094.000000,8195.000000,12219.000000,7807.000000,8669.000000,8129.000000,8293.000000,7573.000000,,,,,,,,,,,,,,,,,,,,,,,,,,,,,,,,,,,,,,,,,,,,,,,,,,,,,,,,,,,,,,,,,,,,,,,,,,,,,,,,,,,,,,,,,,,,,,,,,,,,,,,,,,,,,,,,,,,,
1598856690.032281,81.000000,0.000000,4217.307617,4216.282227,4216.282227,4216.538574,4211.025879,4211.538574,4212.051270,4216.666504,4215.769043,4221.666504,4269.615234,4958.333496,4220.128418,4222.948730,0.000000,2.000000,,,,0.000000,0.000000,0.000000,0.000000,0.000000,0.000000,0.000000,0.000000,0.000000,0.000000,0.000000,0.000000,0.000000,0.000000,0.000000,0.000000,,,,,,,,,,,,,,,,,,,,,,,,,,,,,,,,,,,,,,,,,,,,,,,,,,,,,,,,,,,,,,,,,,,,,,,,,,,,,,,,,,,,,,,,,,,,,,,,,,,,,,,,,,,,,,,,,,,,,,,,,,,,,,,
1598856690.040062,82.000000,0.000000,4217.436035,4214.230957,4217.307617,4217.948730,4212.436035,4212.307617,4212.436035,4216.666504,4217.436035,4220.769043,4271.538574,4960.641113,4218.461426,4222.563965,0.000000,2.000000,,,,0.000000,0.000000,0.000000,0.000000,0.000000,0.000000,0.000000,0.000000,0.000000,0.000000,0.000000,0.000000,0.000000,0.000000,0.000000,0.000000,41.000000,0.000000,8201.000000,8097.000000,8196.000000,12217.000000,7813.000000,8683.000000,8131.000000,8290.000000,7574.000000,,,,,,,,,,,,,,,,,,,,,,,,,,,,,,,,,,,,,,,,,,,,,,,,,,,,,,,,,,,,,,,,,,,,,,,,,,,,,,,,,,,,,,,,,,,,,,,,,,,,,,,,,,,,,,,,,,,,
1598856690.047842,83.000000,0.000000,4216.666504,4214.358887,4219.102539,4215.384766,4212.563965,4211.794922,4212.051270,4216.666504,4217.436035,4219.358887,4271.153809,4958.974121,4216.025879,4220.000000,0.000000,2.000000,,,,0.000000,0.000000,0.000000,0.000000,0.000000,0.000000,0.000000,0.000000,0.000000,0.000000,0.000000,0.000000,0.000000,0.000000,0.000000,0.000000,,,,,,,,,,,,,,,,,,,,,,,,,,,,,,,,,,,,,,,,,,,,,,,,,,,,,,,,,,,,,,,,,,,,,,,,,,,,,,,,,,,,,,,,,,,,,,,,,,,,,,,,,,,,,,,,,,,,,,,,,,,,,,,
1598856690.055822,84.000000,0.000000,4215.000000,4216.666504,4218.717773,4215.128418,4211.282227,4212.436035,4209.487305,4216.666504,4216.794922,4219.358887,4269.871582,4954.358887,4218.077148,4221.922852,0.000000,2.000000,,,,0.000000,0.000000,0.000000,0.000000,0.000000,0.000000,0.000000,0.000000,0.000000,0.000000,0.000000,0.000000,0.000000,0.000000,0.000000,0.000000,42.000000,0.000000,8204.000000,8096.000000,8192.000000,12229.000000,7812.000000,8669.000000,8130.000000,8288.000000,7571.000000,,,,,,,,,,,,,,,,,,,,,,,,,,,,,,,,,,,,,,,,,,,,,,,,,,,,,,,,,,,,,,,,,,,,,,,,,,,,,,,,,,,,,,,,,,,,,,,,,,,,,,,,,,,,,,,,,,,,
1598856690.063703,85.000000,0.000000,4215.000000,4216.282227,4217.307617,4215.512695,4212.692383,4213.333496,4208.461426,4216.666504,4217.307617,4220.000000,4270.512695,4955.897461,4218.974121,4225.384766,0.000000,2.000000,,,,0.000000,0.000000,0.000000,0.000000,0.000000,0.000000,0.000000,0.000000,0.000000,0.000000,0.000000,0.000000,0.000000,0.000000,0.000000,0.000000,,,,,,,,,,,,,,,,,,,,,,,,,,,,,,,,,,,,,,,,,,,,,,,,,,,,,,,,,,0.012133,0.006253,0.005763,0.004859,0.006245,0.007262,0.006120,0.012152,0.005897,0.005503,0.026614,0.012123,0.023992,0.018383,0.020821,0.018794,0.018873,0.019970,0.011903,0.016595,0.016565,0.032576,0.014317,0.029651,0.024034,0.016446,0.027691,0.024998,0.022364,0.020848,0.016995,0.015216,0.015446,0.008064,0.024359,0.002427,0.003761,0.000858,0.000999,0.000797,0.013266,0.020159,0.016166,0.030397,0.028129,0.041852,0.025375,0.024222,0.021962,0.026421,0.009573,0.015773,0.008640,0.015998,0.010649,0.021910,0.031657,0.019094,0.028151,0.028467,0.016230,0.025954,0.041172,0.027103,0.029648,0.020426,0.040007,0.018670,0.029905,0.018041
1598856690.071584,86.000000,0.000000,4216.410156,4214.871582,4216.410156,4213.461426,4214.615234,4213.333496,4210.000000,4216.666504,4217.436035,4222.436035,4270.128418,4958.717773,4217.692383,4223.846191,0.000000,2.000000,,,,0.000000,0.000000,0.000000,0.000000,0.000000,0.000000,0.000000,0.000000,0.000000,0.000000,0.000000,0.000000,0.000000,0.000000,0.000000,0.000000,43.000000,0.000000,8209.000000,8097.000000,8197.000000,12218.000000,7825.000000,8673.000000,8127.000000,8286.000000,7575.000000,,,,,,,,,,,,,,,,,,,,,,,,,,,,,,,,,,,,,,,,,,,,,,,,,,,,,,,,,,,,,,,,,,,,,,,,,,,,,,,,,,,,,,,,,,,,,,,,,,,,,,,,,,,,,,,,,,,,
1598856690.079464,87.000000,0.000000,4216.922852,4216.153809,4218.333496,4214.230957,4213.974121,4212.436035,4212.179688,4216.794922,4216.153809,4221.794922,4268.461426,4958.589844,4218.461426,4223.974121,0.000000,2.000000,,,,0.000000,0.000000,0.000000,0.000000,0.000000,0.000000,0.000000,0.000000,0.000000,0.000000,0.000000,0.000000,0.000000,0.000000,0.000000,0.000000,,,,,,,,,,,,,,,,,,,,,,,,,,,,,,,,,,,,,,,,,,,,,,,,,,,,,,,,,,,,,,,,,,,,,,,,,,,,,,,,,,,,,,,,,,,,,,,,,,,,,,,,,,,,,,,,,,,,,,,,,,,,,,,
1598856690.087345,88.000000,0.000000,4217.051270,4217.179688,4217.051270,4215.256348,4213.461426,4210.641113,4212.307617,4216.666504,4215.512695,4219.358887,4269.358887,4957.051270,4220.641113,4225.128418,0.000000,2.000000,,,,0.000000,0.000000,0.000000,0.000000,0.000000,0.000000,0.000000,0.000000,0.000000,0.000000,0.000000,0.000000,0.000000,0.000000,0.000000,0.000000,44.000000,0.000000,8204.000000,8097.000000,8199.000000,12213.000000,7819.000000,8678.000000,8129.000000,8289.000000,7574.000000,,,,,,,,,,,,,,,,,,,,,,,,,,,,,,,,,,,,,,,,,,,,,,,,,,,,,,,,,,,,,,,,,,,,,,,,,,,,,,,,,,,,,,,,,,,,,,,,,,,,,,,,,,,,,,,,,,,,
1598856690.095226,89.000000,0.000000,4217.692383,4215.769043,4215.256348,4216.153809,4214.871582,4210.256348,4210.000000,4216.666504,4215.897461,4219.743652,4272.563965,4958.077148,4218.589844,4222.179688,0.000000,2.000000,,,,0.000000,0.000000,0.000000,0.000000,0.000000,0.000000,0.000000,0.000000,0.000000,0.000000,0.000000,0.000000,0.000000,0.000000,0.000000,0.000000,,,,,,,,,,,,,,,,,,,,,,,,,,,,,,,,,,,,,,,,,,,,,,,,,,,,,,,,,,,,,,,,,,,,,,,,,,,,,,,,,,,,,,,,,,,,,,,,,,,,,,,,,,,,,,,,,,,,,,,,,,,,,,,
1598856690.103107,90.000000,0.000000,4216.922852,4215.256348,4214.358887,4216.025879,4215.897461,4212.436035,4209.487305,4216.794922,4218.333496,4221.282227,4272.436035,4958.461426,4217.820313,4219.871582,0.000000,2.000000,,,,0.000000,0.000000,0.000000,0.000000,0.000000,0.000000,0.000000,0.000000,0.000000,0.000000,0.000000,0.000000,0.000000,0.000000,0.000000,0.000000,45.000000,0.000000,8211.000000,8095.000000,8194.000000,12217.000000,7804.000000,8673.000000,8128.000000,8288.000000,7575.000000,,,,,,,,,,,,,,,,,,,,,,,,,,,,,,,,,,,,,,,,,,,,,,,,,,,,,,,,,,,,,,,,,,,,,,,,,,,,,,,,,,,,,,,,,,,,,,,,,,,,,,,,,,,,,,,,,,,,
1598856690.110987,91.000000,0.000000,4216.282227,4216.538574,4216.410156,4215.897461,4211.794922,4214.487305,4212.051270,4216.410156,4218.846191,4218.717773,4269.358887,4958.333496,4218.461426,4221.153809,0.000000,2.000000,,,,0.000000,0.000000,0.000000,0.000000,0.000000,0.000000,0.000000,0.000000,0.000000,0.000000,0.000000,0.000000,0.000000,0.000000,0.000000,0.000000,,,,,,,,,,,,,,,,,,,,,,,,,,,,,,,,,,,,,,,,,,,,,,,,,,,,,,,,,,,,,,,,,,,,,,,,,,,,,,,,,,,,,,,,,,,,,,,,,,,,,,,,,,,,,,,,,,,,,,,,,,,,,,,
1598856690.118768,92.000000,0.000000,4216.410156,4216.666504,4217.179688,4215.641113,4210.897461,4211.794922,4212.436035,4216.025879,4217.948730,4216.410156,4270.769043,4956.538574,4218.717773,4223.589844,0.000000,2.000000,,,,0.000000,0.000000,0.000000,0.000000,0.000000,0.000000,0.000000,0.000000,0.000000,0.000000,0.000000,0.000000,0.000000,0.000000,0.000000,0.000000,46.000000,0.000000,8203.000000,8101.000000,8198.000000,12213.000000,7799.000000,8691.000000,8128.000000,8289.000000,7575.000000,,,,,,,,,,,,,,,,,,,,,,,,,,,,,,,,,,,,,,,,,,,,,,,,,,,,,,,,,,,,,,,,,,,,,,,,,,,,,,,,,,,,,,,,,,,,,,,,,,,,,,,,,,,,,,,,,,,,
1598856690.126649,93.000000,0.000000,4215.641113,4215.512695,4217.179688,4217.051270,4216.666504,4211.922852,4210.512695,4215.641113,4220.769043,4218.461426,4271.410156,4955.000000,4216.538574,4223.461426,0.000000,2.000000,,,,0.000000,0.000000,0.000000,0.000000,0.000000,0.000000,0.000000,0.000000,0.000000,0.000000,0.000000,0.000000,0.000000,0.000000,0.000000,0.000000,,,,,,,,,,,,,,,,,,,,,,,,,,,,,,,,,,,,,,,,,,,,,,,,,,,,,,,,,,,,,,,,,,,,,,,,,,,,,,,,,,,,,,,,,,,,,,,,,,,,,,,,,,,,,,,,,,,,,,,,,,,,,,,
1598856690.134529,94.000000,0.000000,4216.538574,4214.487305,4216.025879,4216.922852,4215.256348,4214.615234,4209.230957,4215.897461,4222.563965,4222.307617,4269.358887,4957.820313,4216.794922,4221.666504,0.000000,2.000000,,,,0.000000,0.000000,0.000000,0.000000,0.000000,0.000000,0.000000,0.000000,0.000000,0.000000,0.000000,0.000000,0.000000,0.000000,0.000000,0.000000,47.000000,0.000000,8209.000000,8099.000000,8203.000000,12219.000000,7819.000000,8681.000000,8128.000000,8289.000000,7572.000000,,,,,,,,,,,,,,,,,,,,,,,,,,,,,,,,,,,,,,,,,,,,,,,,,,,,,,,,,,,,,,,,,,,,,,,,,,,,,,,,,,,,,,,,,,,,,,,,,,,,,,,,,,,,,,,,,,,,
1598856690.142410,95.000000,0.000000,4218.333496,4215.769043,4216.025879,4216.410156,4210.897461,4214.230957,4211.538574,4216.794922,4218.077148,4222.692383,4269.358887,4957.436035,4217.179688,4220.000000,0.000000,2.000000,,,,0.000000,0.000000,0.000000,0.000000,0.000000,0.000000,0.000000,0.000000,0.000000,0.000000,0.000000,0.000000,0.000000,0.000000,0.000000,0.000000,,,,,,,,,,,,,,,,,,,,,,,,,,,,,,,,,,,,,,,,,,,,,,,,,,,,,,,,,,,,,,,,,,,,,,,,,,,,,,,,,,,,,,,,,,,,,,,,,,,,,,,,,,,,,,,,,,,,,,,,,,,,,,,
1598856690.150291,96.000000,0.000000,4217.436035,4215.641113,4217.307617,4215.769043,4212.948730,4212.820313,4212.948730,4217.692383,4215.384766,4221.282227,4272.179688,4955.384766,4217.179688,4222.692383,0.000000,2.000000,,,,0.000000,0.000000,0.000000,0.000000,0.000000,0.000000,0.000000,0.000000,0.000000,0.000000,0.000000,0.000000,0.000000,0.000000,0.000000,0.000000,48.000000,0.000000,8205.000000,8101.000000,8202.000000,12218.000000,7804.000000,8670.000000,8129.000000,8288.000000,7572.000000,,,,,,,,,,,,,,,,,,,,,,,,,,,,,,,,,,,,,,,,,,,,,,,,,,,,,,,,,,,,,,,,,,,,,,,,,,,,,,,,,,,,,,,,,,,,,,,,,,,,,,,,,,,,,,,,,,,,
1598856690.158171,97.000000,0.000000,4215.641113,4213.974121,4219.102539,4216.410156,4215.128418,4213.974121,4211.794922,4217.820313,4217.051270,4220.000000,4269.871582,4956.538574,4216.282227,4225.256348,0.000000,2.000000,,,,0.000000,0.000000,0.000000,0.000000,0.000000,0.000000,0.000000,0.000000,0.000000,0.000000,0.000000,0.000000,0.000000,0.000000,0.000000,0.000000,,,,,,,,,,,,,,,,,,,,,,,,,,,,,,,,,,,,,,,,,,,,,,,,,,,,,,,,,,,,,,,,,,,,,,,,,,,,,,,,,,,,,,,,,,,,,,,,,,,,,,,,,,,,,,,,,,,,,,,,,,,,,,,
1598856690.166052,98.000000,0.000000,4215.897461,4215.000000,4218.461426,4215.512695,4213.205078,4213.974121,4211.282227,4217.051270,4217.563965,4220.384766,4267.307617,4958.205078,4217.179688,4224.102539,0.000000,2.000000,,,,0.000000,0.000000,0.000000,0.000000,0.000000,0.000000,0.000000,0.000000,0.000000,0.000000,0.000000,0.000000,0.000000,0.000000,0.000000,0.000000,49.000000,0.000000,8209.000000,8095.000000,8205.000000,12220.000000,7811.000000,8680.000000,8132.000000,8288.000000,7575.000000,,,,,,,,,,,,,,,,,,,,,,,,,,,,,,,,,,,,,,,,,,,,,,,,,,,,,,,,,,,,,,,,,,,,,,,,,,,,,,,,,,,,,,,,,,,,,,,,,,,,,,,,,,,,,,,,,,,,
1598856690.173933,99.000000,0.000000,4215.641113,4216.538574,4215.384766,4214.743652,4212.820313,4213.589844,4211.025879,4216.410156,4218.077148,4222.692383,4268.717773,4956.025879,4216.153809,4219.487305,0.000000,2.000000,,,,0.000000,0.000000,0.000000,0.000000,0.000000,0.000000,0.000000,0.000000,0.000000,0.000000,0.000000,0.000000,0.000000,0.000000,0.000000,0.000000,,,,,,,,,,,,,,,,,,,,,,,,,,,,,,,,,,,,,,,,,,,,,,,,,,,,,,,,,,,,,,,,,,,,,,,,,,,,,,,,,,,,,,,,,,,,,,,,,,,,,,,,,,,,,,,,,,,,,,,,,,,,,,,
1598856690.181814,100.000000,0.000000,4216.025879,4215.641113,4215.128418,4215.641113,4213.589844,4213.205078,4210.512695,4215.769043,4217.563965,4223.461426,4269.230957,4957.436035,4216.025879,4219.615234,0.000000,2.000000,,,,0.000000,0.000000,0.000000,0.000000,0.000000,0.000000,0.000000,0.000000,0.000000,0.000000,0.000000,0.000000,0.000000,0.000000,0.000000,0.000000,50.000000,0.000000,8205.000000,8093.000000,8207.000000,12220.000000,7829.000000,8680.000000,8129.000000,8290.000000,7572.000000,,,,,,,,,,,,,,,,,,,,,,,,,,,,,,,,,,,,,,,,,,,,,,,,,,,,,,,,,,,,,,,,,,,,,,,,,,,,,,,,,,,,,,,,,,,,,,,,,,,,,,,,,,,,,,,,,,,,
1598856690.189594,101.000000,0.000000,4216.922852,4216.410156,4216.666504,4214.743652,4214.615234,4212.307617,4211.153809,4215.384766,4215.512695,4219.615234,4269.358887,4958.717773,4217.820313,4222.820313,0.000000,2.000000,,,,0.000000,0.000000,0.000000,0.000000,0.000000,0.000000,0.000000,0.000000,0.000000,0.000000,0.000000,0.000000,0.000000,0.000000,0.000000,0.000000,,,,,,,,,,,,,,,,,,,,,,,,,,,,,,,,,,,,,,,,,,,,,,,,,,,,,,,,,,0.012492,0.006751,0.005932,0.004883,0.006213,0.007836,0.007407,0.012674,0.005149,0.005570,0.023678,0.011433,0.025042,0.018571,0.023265,0.020212,0.023779,0.014093,0.010023,0.016555,0.019464,0.039864,0.015543,0.026945,0.027144,0.014792,0.028875,0.020843,0.025709,0.019102,0.015627,0.014834,0.017746,0.007353,0.024429,0.001860,0.002748,0.000672,0.000767,0.000656,0.012790,0.022073,0.015140,0.033660,0.030123,0.042035,0.021515,0.024275,0.022004,0.027213,0.011234,0.017768,0.009773,0.014341,0.012353,0.024393,0.033468,0.019823,0.028028,0.028822,0.014059,0.030005,0.040594,0.024086,0.028387,0.017286,0.029357,0.018988,0.032054,0.017481
1598856690.197475,102.000000,0.000000,4215.769043,4217.436035,4217.820313,4214.358887,4216.153809,4211.153809,4210.128418,4217.307617,4216.666504,4219.102539,4271.025879,4957.051270,4218.589844,4223.717773,0.000000,2.000000,,,,0.000000,0.000000,0.000000,0.000000,0.000000,0.000000,0.000000,0.000000,0.000000,0.000000,0.000000,0.000000,0.000000,0.000000,0.000000,0.000000,51.000000,0.000000,8203.000000,8089.000000,8202.000000,12215.000000,7807.000000,8679.000000,8130.000000,8286.000000,7574.000000,,,,,,,,,,,,,,,,,,,,,,,,,,,,,,,,,,,,,,,,,,,,,,,,,,,,,,,,,,,,,,,,,,,,,,,,,,,,,,,,,,,,,,,,,,,,,,,,,,,,,,,,,,,,,,,,,,,,
1598856690.205356,103.000000,0.000000,4215.897461,4216.794922,4217.179688,4215.769043,4216.922852,4211.410156,4208.461426,4218.846191,4218.205078,4221.922852,4271.922852,4955.384766,4218.461426,4223.077148,0.000000,2.000000,,,,0.000000,0.000000,0.000000,0.000000,0.000000,0.000000,0.000000,0.000000,0.000000,0.000000,0.000000,0.000000,0.000000,0.000000,0.000000,0.000000,,,,,,,,,,,,,,,,,,,,,,,,,,,,,,,,,,,,,,,,,,,,,,,,,,,,,,,,,,,,,,,,,,,,,,,,,,,,,,,,,,,,,,,,,,,,,,,,,,,,,,,,,,,,,,,,,,,,,,,,,,,,,,,
1598856690.213236,104.000000,0.000000,4217.179688,4215.512695,4217.692383,4216.538574,4216.282227,4213.461426,4209.871582,4217.051270,4216.922852,4220.512695,4270.897461,4956.282227,4219.487305,4223.974121,0.000000,2.000000,,,,0.000000,0.000000,0.000000,0.000000,0.000000,0.000000,0.000000,0.000000,0.000000,0.000000,0.000000,0.000000,0.000000,0.000000,0.000000,0.000000,52.000000,0.000000,8205.000000,8091.000000,8202.000000,12217.000000,7816.000000,8680.000000,8128.000000,8286.000000,7574.000000,,,,,,,,,,,,,,,,,,,,,,,,,,,,,,,,,,,,,,,,,,,,,,,,,,,,,,,,,,,,,,,,,,,,,,,,,,,,,,,,,,,,,,,,,,,,,,,,,,,,,,,,,,,,,,,,,,,,
1598856690.221117,105.000000,0.000000,4216.282227,4215.897461,4217.307617,4216.666504,4215.000000,4213.846191,4212.307617,4215.897461,4216.282227,4218.974121,4269.615234,4955.128418,4219.615234,4223.717773,0.000000,2.000000,,,,0.000000,0.000000,0.000000,0.000000,0.000000,0.000000,0.000000,0.000000,0.000000,0.000000,0.000000,0.000000,0.000000,0.000000,0.000000,0.000000,,,,,,,,,,,,,,,,,,,,,,,,,,,,,,,,,,,,,,,,,,,,,,,,,,,,,,,,,,,,,,,,,,,,,,,,,,,,,,,,,,,,,,,,,,,,,,,,,,,,,,,,,,,,,,,,,,,,,,,,,,,,,,,
1598856690.228998,106.000000,0.000000,4215.897461,4216.666504,4215.897461,4219.230957,4213.589844,4213.205078,4210.384766,4217.436035,4217.307617,4219.615234,4269.743652,4954.102539,4216.922852,4222.436035,0.000000,2.000000,,,,0.000000,0.000000,0.000000,0.000000,0.000000,0.000000,0.000000,0.000000,0.000000,0.000000,0.000000,0.000000,0.000000,0.000000,0.000000,0.000000,53.000000,0.000000,8201.000000,8099.000000,8202.000000,12222.000000,7809.000000,8681.000000,8126.000000,8289.000000,7576.000000,,,,,,,,,,,,,,,,,,,,,,,,,,,,,,,,,,,,,,,,,,,,,,,,,,,,,,,,,,,,,,,,,,,,,,,,,,,,,,,,,,,,,,,,,,,,,,,,,,,,,,,,,,,,,,,,,,,,
1598856690.236878,107.000000,0.000000,4216.666504,4216.153809,4213.717773,4219.743652,4214.102539,4214.230957,4207.436035,4217.948730,4217.051270,4218.205078,4270.512695,4955.897461,4216.410156,4221.025879,0.000000,2.000000,,,,0.000000,0.000000,0.000000,0.000000,0.000000,0.000000,0.000000,0.000000,0.000000,0.000000,0.000000,0.000000,0.000000,0.000000,0.000000,0.000000,,,,,,,,,,,,,,,,,,,,,,,,,,,,,,,,,,,,,,,,,,,,,,,,,,,,,,,,,,,,,,,,,,,,,,,,,,,,,,,,,,,,,,,,,,,,,,,,,,,,,,,,,,,,,,,,,,,,,,,,,,,,,,,
1598856690.244759,108.000000,0.000000,4216.153809,4215.256348,4214.615234,4218.205078,4213.846191,4213.974121,4210.256348,4217.307617,4216.666504,4218.333496,4270.000000,4959.871582,4217.563965,4223.333496,0.000000,2.000000,,,,0.000000,0.000000,0.000000,0.000000,0.000000,0.000000,0.000000,0.000000,0.000000,0.000000,0.000000,0.000000,0.000000,0.000000,0.000000,0.000000,54.000000,0.000000,8206.000000,8091.000000,8199.000000,12218.000000,7817.000000,8689.000000,8126.000000,8285.000000,7573.000000,,,,,,,,,,,,,,,,,,,,,,,,,,,,,,,,,,,,,,,,,,,,,,,,,,,,,,,,,,,,,,,,,,,,,,,,,,,,,,,,,,,,,,,,,,,,,,,,,,,,,,,,,,,,,,,,,,,,
1598856690.252640,109.000000,0.000000,4216.025879,4216.282227,4215.897461,4216.922852,4213.205078,4211.538574,4213.974121,4217.436035,4218.333496,4220.641113,4270.128418,4958.846191,4219.102539,4226.922852,0.000000,2.000000,,,,0.000000,0.000000,0.000000,0.000000,0.000000,0.000000,0.000000,0.000000,0.000000,0.000000,0.000000,0.000000,0.000000,0.000000,0.000000,0.000000,,,,,,,,,,,,,,,,,,,,,,,,,,,,,,,,,,,,,,,,,,,,,,,,,,,,,,,,,,,,,,,,,,,,,,,,,,,,,,,,,,,,,,,,,,,,,,,,,,,,,,,,,,,,,,,,,,,,,,,,,,,,,,,
1598856690.260420,110.000000,0.000000,4217.820313,4216.410156,4215.384766,4216.025879,4214.743652,4211.410156,4212.436035,4217.692383,4218.333496,4216.538574,4270.512695,4956.410156,4219.102539,4222.307617,0.000000,2.000000,,,,0.000000,0.000000,0.000000,0.000000,0.000000,0.000000,0.000000,0.000000,0.000000,0.000000,0.000000,0.000000,0.000000,0.000000,0.000000,0.000000,55.000000,0.000000,8212.000000,8089.000000,8202.000000,12219.000000,7817.000000,8677.000000,8131.000000,8292.000000,7573.000000,,,,,,,,,,,,,,,,,,,,,,,,,,,,,,,,,,,,,,,,,,,,,,,,,,,,,,,,,,,,,,,,,,,,,,,,,,,,,,,,,,,,,,,,,,,,,,,,,,,,,,,,,,,,,,,,,,,,
1598856690.268300,111.000000,0.000000,4217.436035,4215.128418,4213.974121,4215.512695,4214.743652,4209.871582,4210.000000,4217.563965,4217.563965,4214.358887,4270.128418,4958.589844,4218.974121,4218.333496,0.000000,2.000000,,,,0.000000,0.000000,0.000000,0.000000,0.000000,0.000000,0.000000,0.000000,0.000000,0.000000,0.000000,0.000000,0.000000,0.000000,0.000000,0.000000,,,,,,,,,,,,,,,,,,,,,,,,,,,,,,,,,,,,,,,,,,,,,,,,,,,,,,,,,,,,,,,,,,,,,,,,,,,,,,,,,,,,,,,,,,,,,,,,,,,,,,,,,,,,,,,,,,,,,,,,,,,,,,,
1598856690.276181,112.000000,0.000000,4215.512695,4215.384766,4215.512695,4215.000000,4216.538574,4211.794922,4211.666504,4217.563965,4216.153809,4220.897461,4268.846191,4960.256348,4217.051270,4222.307617,0.000000,2.000000,,,,0.000000,0.000000,0.000000,0.000000,0.000000,0.000000,0.000000,0.000000,0.000000,0.000000,0.000000,0.000000,0.000000,0.000000,0.000000,0.000000,56.000000,0.000000,8209.000000,8097.000000,8205.000000,12216.000000,7801.000000,8675.000000,8131.000000,8288.000000,7574.000000,,,,,,,,,,,,,,,,,,,,,,,,,,,,,,,,,,,,,,,,,,,,,,,,,,,,,,,,,,,,,,,,,,,,,,,,,,,,,,,,,,,,,,,,,,,,,,,,,,,,,,,,,,,,,,,,,,,,
1598856690.283961,113.000000,0.000000,4215.641113,4215.512695,4215.769043,4214.615234,4216.153809,4216.153809,4211.153809,4217.563965,4216.410156,4224.102539,4269.615234,4958.717773,4217.948730,4225.384766,0.000000,2.000000,,,,0.000000,0.000000,0.000000,0.000000,0.000000,0.000000,0.000000,0.000000,0.000000,0.000000,0.000000,0.000000,0.000000,0.000000,0.000000,0.000000,,,,,,,,,,,,,,,,,,,,,,,,,,,,,,,,,,,,,,,,,,,,,,,,,,,,,,,,,,,,,,,,,,,,,,,,,,,,,,,,,,,,,,,,,,,,,,,,,,,,,,,,,,,,,,,,,,,,,,,,,,,,,,,
1598856690.291741,114.000000,0.000000,4216.666504,4214.743652,4217.307617,4217.051270,4213.974121,4214.743652,4210.384766,4217.563965,4220.000000,4220.769043,4271.025879,4955.897461,4217.692383,4221.666504,0.000000,2.000000,,,,0.000000,0.000000,0.000000,0.000000,0.000000,0.000000,0.000000,0.000000,0.000000,0.000000,0.000000,0.000000,0.000000,0.000000,0.000000,0.000000,57.000000,0.000000,8204.000000,8099.000000,8195.000000,12217.000000,7818.000000,8683.000000,8126.000000,8289.000000,7571.000000,,,,,,,,,,,,,,,,,,,,,,,,,,,,,,,,,,,,,,,,,,,,,,,,,,,,,,,,,,,,,,,,,,,,,,,,,,,,,,,,,,,,,,,,,,,,,,,,,,,,,,,,,,,,,,,,,,,,
1598856690.299621,115.000000,0.000000,4216.282227,4215.384766,4216.538574,4217.179688,4212.692383,4211.153809,4210.000000,4217.563965,4220.512695,4219.615234,4272.179688,4955.128418,4216.666504,4220.641113,0.000000,2.000000,,,,0.000000,0.000000,0.000000,0.000000,0.000000,0.000000,0.000000,0.000000,0.000000,0.000000,0.000000,0.000000,0.000000,0.000000,0.000000,0.000000,,,,,,,,,,,,,,,,,,,,,,,,,,,,,,,,,,,,,,,,,,,,,,,,,,,,,,,,,,,,,,,,,,,,,,,,,,,,,,,,,,,,,,,,,,,,,,,,,,,,,,,,,,,,,,,,,,,,,,,,,,,,,,,
1598856690.307402,116.000000,0.000000,4215.384766,4216.153809,4213.846191,4216.794922,4212.179688,4213.846191,4209.230957,4217.563965,4216.666504,4220.128418,4270.512695,4955.897461,4216.153809,4221.922852,0.000000,2.000000,,,,0.000000,0.000000,0.000000,0.000000,0.000000,0.000000,0.000000,0.000000,0.000000,0.000000,0.000000,0.000000,0.000000,0.000000,0.000000,0.000000,58.000000,0.000000,8203.000000,8090.000000,8202.000000,12216.000000,7812.000000,8680.000000,8128.000000,8287.000000,7574.000000,,,,,,,,,,,,,,,,,,,,,,,,,,,,,,,,,,,,,,,,,,,,,,,,,,,,,,,,,,,,,,,,,,,,,,,,,,,,,,,,,,,,,,,,,,,,,,,,,,,,,,,,,,,,,,,,,,,,
1598856690.315283,117.000000,0.000000,4216.025879,4216.538574,4216.410156,4217.307617,4213.205078,4215.897461,4207.948730,4217.692383,4216.282227,4218.974121,4268.333496,4956.282227,4218.974121,4225.000000,0.000000,2.000000,,,,0.000000,0.000000,0.000000,0.000000,0.000000,0.000000,0.000000,0.000000,0.000000,0.000000,0.000000,0.000000,0.000000,0.000000,0.000000,0.000000,,,,,,,,,,,,,,,,,,,,,,,,,,,,,,,,,,,,,,,,,,,,,,,,,,,,,,,,,,0.013307,0.007714,0.005623,0.004715,0.006176,0.008448,0.008501,0.012654,0.004446,0.005759,0.021773,0.010473,0.025525,0.019269,0.025364,0.021318,0.026831,0.010604,0.008980,0.016233,0.022485,0.045478,0.017003,0.023694,0.030403,0.013757,0.030596,0.018115,0.029702,0.018037,0.015182,0.015019,0.020843,0.007758,0.023674,0.001233,0.001693,0.000460,0.000518,0.000478,0.013244,0.023462,0.014568,0.035407,0.032019,0.043044,0.021294,0.024005,0.021396,0.028469,0.012518,0.019218,0.010660,0.012514,0.014756,0.027123,0.035803,0.020185,0.026314,0.028754,0.011513,0.033678,0.036486,0.020653,0.027369,0.015364,0.021759,0.018981,0.032800,0.017392
1598856690.323164,118.000000,0.000000,4216.922852,4216.666504,4220.641113,4215.897461,4216.153809,4214.358887,4209.615234,4217.436035,4218.974121,4220.384766,4267.307617,4952.948730,4219.358887,4225.000000,0.000000,2.000000,,,,0.000000,0.000000,0.000000,0.000000,0.000000,0.000000,0.000000,0.000000,0.000000,0.000000,0.000000,0.000000,0.000000,0.000000,0.000000,0.000000,59.000000,0.000000,8203.000000,8095.000000,8190.000000,12214.000000,7812.000000,8671.000000,8126.000000,8293.000000,7573.000000,,,,,,,,,,,,,,,,,,,,,,,,,,,,,,,,,,,,,,,,,,,,,,,,,,,,,,,,,,,,,,,,,,,,,,,,,,,,,,,,,,,,,,,,,,,,,,,,,,,,,,,,,,,,,,,,,,,,
1598856690.331044,119.000000,0.000000,4216.666504,4216.410156,4218.717773,4215.384766,4215.512695,4211.282227,4210.512695,4217.563965,4217.820313,4221.153809,4269.230957,4954.358887,4217.307617,4221.282227,0.000000,2.000000,,,,0.000000,0.000000,0.000000,0.000000,0.000000,0.000000,0.000000,0.000000,0.000000,0.000000,0.000000,0.000000,0.000000,0.000000,0.000000,0.000000,,,,,,,,,,,,,,,,,,,,,,,,,,,,,,,,,,,,,,,,,,,,,,,,,,,,,,,,,,,,,,,,,,,,,,,,,,,,,,,,,,,,,,,,,,,,,,,,,,,,,,,,,,,,,,,,,,,,,,,,,,,,,,,
1598856690.338925,120.000000,0.000000,4216.794922,4217.563965,4215.769043,4218.333496,4214.871582,4211.025879,4211.025879,4217.692383,4217.563965,4220.256348,4269.102539,4957.563965,4217.307617,4219.487305,0.000000,2.000000,,,,0.000000,0.000000,0.000000,0.000000,0.000000,0.000000,0.000000,0.000000,0.000000,0.000000,0.000000,0.000000,0.000000,0.000000,0.000000,0.000000,60.000000,0.000000,8202.000000,8092.000000,8196.000000,12213.000000,7812.000000,8681.000000,8132.000000,8288.000000,7573.000000,,,,,,,,,,,,,,,,,,,,,,,,,,,,,,,,,,,,,,,,,,,,,,,,,,,,,,,,,,,,,,,,,,,,,,,,,,,,,,,,,,,,,,,,,,,,,,,,,,,,,,,,,,,,,,,,,,,,
1598856690.346806,121.000000,0.000000,4217.051270,4217.051270,4217.948730,4218.333496,4217.948730,4215.384766,4211.666504,4216.922852,4217.051270,4221.153809,4267.820313,4957.948730,4218.205078,4222.307617,0.000000,2.000000,,,,0.000000,0.000000,0.000000,0.000000,0.000000,0.000000,0.000000,0.000000,0.000000,0.000000,0.000000,0.000000,0.000000,0.000000,0.000000,0.000000,,,,,,,,,,,,,,,,,,,,,,,,,,,,,,,,,,,,,,,,,,,,,,,,,,,,,,,,,,,,,,,,,,,,,,,,,,,,,,,,,,,,,,,,,,,,,,,,,,,,,,,,,,,,,,,,,,,,,,,,,,,,,,,
1598856690.354686,122.000000,0.000000,4216.922852,4214.743652,4216.282227,4213.589844,4215.128418,4217.179688,4211.666504,4215.897461,4218.205078,4221.538574,4269.487305,4956.153809,4218.333496,4221.025879,0.000000,2.000000,,,,0.000000,0.000000,0.000000,0.000000,0.000000,0.000000,0.000000,0.000000,0.000000,0.000000,0.000000,0.000000,0.000000,0.000000,0.000000,0.000000,61.000000,0.000000,8210.000000,8095.000000,8198.000000,12218.000000,7810.000000,8683.000000,8129.000000,8285.000000,7575.000000,,,,,,,,,,,,,,,,,,,,,,,,,,,,,,,,,,,,,,,,,,,,,,,,,,,,,,,,,,,,,,,,,,,,,,,,,,,,,,,,,,,,,,,,,,,,,,,,,,,,,,,,,,,,,,,,,,,,
1598856690.362567,123.000000,0.000000,4216.410156,4215.384766,4214.230957,4214.871582,4211.153809,4213.846191,4211.282227,4215.769043,4222.051270,4220.641113,4271.538574,4957.692383,4215.897461,4218.974121,0.000000,2.000000,,,,0.000000,0.000000,0.000000,0.000000,0.000000,0.000000,0.000000,0.000000,0.000000,0.000000,0.000000,0.000000,0.000000,0.000000,0.000000,0.000000,,,,,,,,,,,,,,,,,,,,,,,,,,,,,,,,,,,,,,,,,,,,,,,,,,,,,,,,,,,,,,,,,,,,,,,,,,,,,,,,,,,,,,,,,,,,,,,,,,,,,,,,,,,,,,,,,,,,,,,,,,,,,,,
1598856690.370448,124.000000,0.000000,4216.538574,4216.410156,4215.512695,4216.794922,4212.179688,4213.077148,4211.282227,4216.025879,4221.922852,4220.000000,4270.897461,4959.743652,4215.641113,4219.743652,0.000000,2.000000,,,,0.000000,0.000000,0.000000,0.000000,0.000000,0.000000,0.000000,0.000000,0.000000,0.000000,0.000000,0.000000,0.000000,0.000000,0.000000,0.000000,62.000000,0.000000,8207.000000,8095.000000,8203.000000,12212.000000,7823.000000,8688.000000,8131.000000,8286.000000,7572.000000,,,,,,,,,,,,,,,,,,,,,,,,,,,,,,,,,,,,,,,,,,,,,,,,,,,,,,,,,,,,,,,,,,,,,,,,,,,,,,,,,,,,,,,,,,,,,,,,,,,,,,,,,,,,,,,,,,,,
1598856690.378229,125.000000,0.000000,4216.666504,4215.256348,4217.820313,4216.794922,4212.307617,4214.230957,4211.922852,4215.769043,4217.948730,4218.846191,4270.000000,4959.871582,4217.563965,4220.641113,0.000000,2.000000,,,,0.000000,0.000000,0.000000,0.000000,0.000000,0.000000,0.000000,0.000000,0.000000,0.000000,0.000000,0.000000,0.000000,0.000000,0.000000,0.000000,,,,,,,,,,,,,,,,,,,,,,,,,,,,,,,,,,,,,,,,,,,,,,,,,,,,,,,,,,,,,,,,,,,,,,,,,,,,,,,,,,,,,,,,,,,,,,,,,,,,,,,,,,,,,,,,,,,,,,,,,,,,,,,
1598856690.386110,126.000000,0.000000,4216.538574,4215.000000,4217.563965,4217.179688,4212.179688,4213.205078,4212.307617,4215.897461,4215.256348,4217.820313,4270.512695,4957.948730,4218.077148,4221.538574,0.000000,2.000000,,,,0.000000,0.000000,0.000000,0.000000,0.000000,0.000000,0.000000,0.000000,0.000000,0.000000,0.000000,0.000000,0.000000,0.000000,0.000000,0.000000,63.000000,0.000000,8209.000000,8094.000000,8198.000000,12218.000000,7813.000000,8676.000000,8137.000000,8292.000000,7572.000000,,,,,,,,,,,,,,,,,,,,,,,,,,,,,,,,,,,,,,,,,,,,,,,,,,,,,,,,,,,,,,,,,,,,,,,,,,,,,,,,,,,,,,,,,,,,,,,,,,,,,,,,,,,,,,,,,,,,
1598856690.393991,127.000000,0.000000,4216.153809,4215.384766,4216.025879,4216.922852,4213.077148,4213.461426,4211.922852,4215.897461,4214.615234,4218.589844,4270.128418,4957.820313,4215.769043,4222.051270,51.000000,2.000000,,,,0.000000,0.000000,0.000000,0.000000,0.000000,0.000000,0.000000,0.000000,0.000000,0.000000,0.000000,0.000000,0.000000,0.000000,0.000000,0.000000,,,,,,,,,,,,,,,,,,,,,,,,,,,,,,,,,,,,,,,,,,,,,,,,,,,,,,,,,,,,,,,,,,,,,,,,,,,,,,,,,,,,,,,,,,,,,,,,,,,,,,,,,,,,,,,,,,,,,,,,,,,,,,,
