title:demo marker, start timestamp:1598855198.154863, stop timestamp:1598855228.494419, headset type:EPOCPLUS, headset serial:3B9ADC97, headset firmware:625, subject name:deltaphase, channels:165, sampling rate:eeg_128;mot_64;pm_0.1;pow_8, samples:3853      , version:2.0
Timestamp,EEG.Counter,EEG.Interpolated,EEG.AF3,EEG.F7,EEG.F3,EEG.FC5,EEG.T7,EEG.P7,EEG.O1,EEG.O2,EEG.P8,EEG.T8,EEG.FC6,EEG.F4,EEG.F8,EEG.AF4,EEG.RawCq,EEG.Battery,MarkerIndex,MarkerType,MarkerValueInt,EEG.MarkerHardware,CQ.AF3,CQ.F7,CQ.F3,CQ.FC5,CQ.T7,CQ.P7,CQ.O1,CQ.O2,CQ.P8,CQ.T8,CQ.FC6,CQ.F4,CQ.F8,CQ.AF4,CQ.Overall,MOT.CounterMems,MOT.InterpolatedMems,MOT.GyroX,MOT.GyroY,MOT.GyroZ,MOT.AccX,MOT.AccY,MOT.AccZ,MOT.MagX,MOT.MagY,MOT.MagZ,PM.AuditoryAttention.IsActive,PM.AuditoryAttention.Scaled,PM.AuditoryAttention.Raw,PM.AuditoryAttention.Min,PM.AuditoryAttention.Max,PM.VisualAttention.IsActive,PM.VisualAttention.Scaled,PM.VisualAttention.Raw,PM.VisualAttention.Min,PM.VisualAttention.Max,PM.CognitiveStress.IsActive,PM.CognitiveStress.Scaled,PM.CognitiveStress.Raw,PM.CognitiveStress.Min,PM.CognitiveStress.Max,PM.Engagement.IsActive,PM.Engagement.Scaled,PM.Engagement.Raw,PM.Engagement.Min,PM.Engagement.Max,PM.Excitement.IsActive,PM.Excitement.Scaled,PM.Excitement.Raw,PM.Excitement.Min,PM.Excitement.Max,PM.LongTermExcitement,PM.Stress.IsActive,PM.Stress.Scaled,PM.Stress.Raw,PM.Stress.Min,PM.Stress.Max,PM.Relaxation.IsActive,PM.Relaxation.Scaled,PM.Relaxation.Raw,PM.Relaxation.Min,PM.Relaxation.Max,PM.Interest.IsActive,PM.Interest.Scaled,PM.Interest.Raw,PM.Interest.Min,PM.Interest.Max,PM.Focus.IsActive,PM.Focus.Scaled,PM.Focus.Raw,PM.Focus.Min,PM.Focus.Max,POW.AF3.Theta,POW.AF3.Alpha,POW.AF3.BetaL,POW.AF3.BetaH,POW.AF3.Gamma,POW.F7.Theta,POW.F7.Alpha,POW.F7.BetaL,POW.F7.BetaH,POW.F7.Gamma,POW.F3.Theta,POW.F3.Alpha,POW.F3.BetaL,POW.F3.BetaH,POW.F3.Gamma,POW.FC5.Theta,POW.FC5.Alpha,POW.FC5.BetaL,POW.FC5.BetaH,POW.FC5.Gamma,POW.T7.Theta,POW.T7.Alpha,POW.T7.BetaL,POW.T7.BetaH,POW.T7.Gamma,POW.P7.Theta,POW.P7.Alpha,POW.P7.BetaL,POW.P7.BetaH,POW.P7.Gamma,POW.O1.Theta,POW.O1.Alpha,POW.O1.BetaL,POW.O1.BetaH,POW.O1.Gamma,POW.O2.Theta,POW.O2.Alpha,POW.O2.BetaL,POW.O2.BetaH,POW.O2.Gamma,POW.P8.Theta,POW.P8.Alpha,POW.P8.BetaL,POW.P8.BetaH,POW.P8.Gamma,POW.T8.Theta,POW.T8.Alpha,POW.T8.BetaL,POW.T8.BetaH,POW.T8.Gamma,POW.FC6.Theta,POW.FC6.Alpha,POW.FC6.BetaL,POW.FC6.BetaH,POW.FC6.Gamma,POW.F4.Theta,POW.F4.Alpha,POW.F4.BetaL,POW.F4.BetaH,POW.F4.Gamma,POW.F8.Theta,POW.F8.Alpha,POW.F8.BetaL,POW.F8.BetaH,POW.F8.Gamma,POW.AF4.Theta,POW.AF4.Alpha,POW.AF4.BetaL,POW.AF4.BetaH,POW.AF4.Gamma
1598855198.154863,58.000000,0.000000,4216.025879,4214.230957,4213.974121,4216.025879,4211.794922,4212.563965,4212.692383,4216.794922,4217.436035,4221.282227,4271.922852,4956.666504,4216.922852,4226.282227,0.000000,2.000000,,,,0.000000,0.000000,0.000000,0.000000,0.000000,0.000000,0.000000,0.000000,0.000000,0.000000,0.000000,0.000000,0.000000,0.000000,0.000000,0.000000,29.000000,0.000000,8213.000000,8097.000000,8206.000000,12228.000000,7679.000000,8582.000000,8143.000000,8111.000000,7647.000000,,,,,,,,,,,,,,,,,,,,,,,,,,,,,,,,,,,,,,,,,,,,,,,,,,,,,,,,,,,,,,,,,,,,,,,,,,,,,,,,,,,,,,,,,,,,,,,,,,,,,,,,,,,,,,,,,,,,
1598855198.162649,59.000000,0.000000,4215.256348,4216.794922,4216.794922,4215.641113,4210.769043,4214.102539,4209.487305,4216.794922,4215.128418,4219.615234,4270.769043,4955.769043,4219.358887,4223.717773,0.000000,2.000000,,,,0.000000,0.000000,0.000000,0.000000,0.000000,0.000000,0.000000,0.000000,0.000000,0.000000,0.000000,0.000000,0.000000,0.000000,0.000000,0.000000,,,,,,,,,,,,,,,,,,,,,,,,,,,,,,,,,,,,,,,,,,,,,,,,,,,,,,,,,,,,,,,,,,,,,,,,,,,,,,,,,,,,,,,,,,,,,,,,,,,,,,,,,,,,,,,,,,,,,,,,,,,,,,,
1598855198.170534,60.000000,0.000000,4215.769043,4214.230957,4218.461426,4214.230957,4209.358887,4212.179688,4209.743652,4216.794922,4215.641113,4220.769043,4268.717773,4955.128418,4220.641113,4217.692383,0.000000,2.000000,,,,0.000000,0.000000,0.000000,0.000000,0.000000,0.000000,0.000000,0.000000,0.000000,0.000000,0.000000,0.000000,0.000000,0.000000,0.000000,0.000000,30.000000,0.000000,8212.000000,8096.000000,8210.000000,12218.000000,7681.000000,8580.000000,8147.000000,8116.000000,7648.000000,,,,,,,,,,,,,,,,,,,,,,,,,,,,,,,,,,,,,,,,,,,,,,,,,,,,,,,,,,,,,,,,,,,,,,,,,,,,,,,,,,,,,,,,,,,,,,,,,,,,,,,,,,,,,,,,,,,,
1598855198.178420,61.000000,0.000000,4217.307617,4214.615234,4214.615234,4216.025879,4215.769043,4212.179688,4212.820313,4216.794922,4218.077148,4224.358887,4267.692383,4956.025879,4217.307617,4218.077148,0.000000,2.000000,1,1,,0.000000,0.000000,0.000000,0.000000,0.000000,0.000000,0.000000,0.000000,0.000000,0.000000,0.000000,0.000000,0.000000,0.000000,0.000000,0.000000,,,,,,,,,,,,,,,,,,,,,,,,,,,,,,,,,,,,,,,,,,,,,,,,,,,,,,,,,,,,,,,,,,,,,,,,,,,,,,,,,,,,,,,,,,,,,,,,,,,,,,,,,,,,,,,,,,,,,,,,,,,,,,,
1598855198.186204,62.000000,0.000000,4216.410156,4215.897461,4212.307617,4217.307617,4217.307617,4215.641113,4210.641113,4216.794922,4218.077148,4222.051270,4267.692383,4955.897461,4215.769043,4224.358887,0.000000,2.000000,,,,0.000000,0.000000,0.000000,0.000000,0.000000,0.000000,0.000000,0.000000,0.000000,0.000000,0.000000,0.000000,0.000000,0.000000,0.000000,0.000000,31.000000,0.000000,8210.000000,8102.000000,8211.000000,12224.000000,7701.000000,8571.000000,8141.000000,8114.000000,7650.000000,,,,,,,,,,,,,,,,,,,,,,,,,,,,,,,,,,,,,,,,,,,,,,,,,,,,,,,,,,,,,,,,,,,,,,,,,,,,,,,,,,,,,,,,,,,,,,,,,,,,,,,,,,,,,,,,,,,,
1598855198.193988,63.000000,0.000000,4215.384766,4212.563965,4216.025879,4215.769043,4212.948730,4217.692383,4209.615234,4216.794922,4216.153809,4219.615234,4267.820313,4954.487305,4215.000000,4226.410156,0.000000,2.000000,,,,0.000000,0.000000,0.000000,0.000000,0.000000,0.000000,0.000000,0.000000,0.000000,0.000000,0.000000,0.000000,0.000000,0.000000,0.000000,0.000000,,,,,,,,,,,,,,,,,,,,,,,,,,,,,,,,,,,,,,,,,,,,,,,,,,,,,,,,,,,,,,,,,,,,,,,,,,,,,,,,,,,,,,,,,,,,,,,,,,,,,,,,,,,,,,,,,,,,,,,,,,,,,,,
1598855198.201873,64.000000,0.000000,4215.641113,4211.025879,4216.922852,4214.743652,4211.538574,4215.512695,4211.922852,4216.794922,4216.410156,4222.307617,4268.974121,4954.230957,4213.205078,4223.333496,0.000000,2.000000,,,,0.000000,0.000000,0.000000,0.000000,0.000000,0.000000,0.000000,0.000000,0.000000,0.000000,0.000000,0.000000,0.000000,0.000000,0.000000,0.000000,32.000000,0.000000,8210.000000,8094.000000,8214.000000,12230.000000,7705.000000,8572.000000,8142.000000,8117.000000,7648.000000,,,,,,,,,,,,,,,,,,,,,,,,,,,,,,,,,,,,,,,,,,,,,,,,,,,,,,,,,,,,,,,,,,,,,,,,,,,,,,,,,,,,,,,,,,,,,,,,,,,,,,,,,,,,,,,,,,,,
1598855198.209657,65.000000,0.000000,4216.153809,4214.230957,4214.487305,4216.794922,4210.897461,4213.205078,4211.538574,4216.794922,4216.794922,4220.384766,4268.846191,4954.743652,4213.205078,4220.256348,0.000000,2.000000,,,,0.000000,0.000000,0.000000,0.000000,0.000000,0.000000,0.000000,0.000000,0.000000,0.000000,0.000000,0.000000,0.000000,0.000000,0.000000,0.000000,,,,,,,,,,,,,,,,,,,,,,,,,,,,,,,,,,,,,,,,,,,,,,,,,,,,,,,,,,,,,,,,,,,,,,,,,,,,,,,,,,,,,,,,,,,,,,,,,,,,,,,,,,,,,,,,,,,,,,,,,,,,,,,
1598855198.217542,66.000000,0.000000,4216.025879,4214.871582,4216.666504,4216.538574,4210.512695,4212.563965,4209.102539,4216.794922,4215.384766,4218.717773,4268.846191,4958.205078,4215.641113,4221.666504,0.000000,2.000000,,,,0.000000,0.000000,0.000000,0.000000,0.000000,0.000000,0.000000,0.000000,0.000000,0.000000,0.000000,0.000000,0.000000,0.000000,0.000000,0.000000,33.000000,0.000000,8207.000000,8101.000000,8208.000000,12219.000000,7678.000000,8578.000000,8143.000000,8113.000000,7645.000000,,,,,,,,,,,,,,,,,,,,,,,,,,,,,,,,,,,,,,,,,,,,,,,,,,,,,,,,,,,,,,,,,,,,,,,,,,,,,,,,,,,,,,,,,,,,,,,,,,,,,,,,,,,,,,,,,,,,
1598855198.225331,67.000000,0.000000,4214.871582,4212.563965,4219.615234,4213.333496,4213.205078,4212.307617,4210.256348,4216.794922,4215.897461,4222.051270,4270.128418,4956.282227,4215.384766,4221.794922,0.000000,2.000000,,,,0.000000,0.000000,0.000000,0.000000,0.000000,0.000000,0.000000,0.000000,0.000000,0.000000,0.000000,0.000000,0.000000,0.000000,0.000000,0.000000,,,,,,,,,,,,,,,,,,,,,,,,,,,,,,,,,,,,,,,,,,,,,,,,,,,,,,,,,,,,,,,,,,,,,,,,,,,,,,,,,,,,,,,,,,,,,,,,,,,,,,,,,,,,,,,,,,,,,,,,,,,,,,,
1598855198.233220,68.000000,0.000000,4215.128418,4211.922852,4217.436035,4215.128418,4213.205078,4210.641113,4211.794922,4216.794922,4216.922852,4221.794922,4270.641113,4953.589844,4216.025879,4221.153809,0.000000,2.000000,,,,0.000000,0.000000,0.000000,0.000000,0.000000,0.000000,0.000000,0.000000,0.000000,0.000000,0.000000,0.000000,0.000000,0.000000,0.000000,0.000000,34.000000,0.000000,8209.000000,8097.000000,8210.000000,12225.000000,7672.000000,8572.000000,8144.000000,8112.000000,7648.000000,,,,,,,,,,,,,,,,,,,,,,,,,,,,,,,,,,,,,,,,,,,,,,,,,,,,,,,,,,,,,,,,,,,,,,,,,,,,,,,,,,,,,,,,,,,,,,,,,,,,,,,,,,,,,,,,,,,,
1598855198.241109,69.000000,0.000000,4215.769043,4212.692383,4215.128418,4217.563965,4212.051270,4211.282227,4210.512695,4216.794922,4217.179688,4219.358887,4269.743652,4954.615234,4217.436035,4221.153809,0.000000,2.000000,,,,0.000000,0.000000,0.000000,0.000000,0.000000,0.000000,0.000000,0.000000,0.000000,0.000000,0.000000,0.000000,0.000000,0.000000,0.000000,0.000000,,,,,,,,,,,,,,,,,,,,,,,,,,,,,,,,,,,,,,,,,,,,,,,,,,,,,,,,,,,,,,,,,,,,,,,,,,,,,,,,,,,,,,,,,,,,,,,,,,,,,,,,,,,,,,,,,,,,,,,,,,,,,,,
1598855198.248998,70.000000,0.000000,4215.384766,4213.077148,4216.153809,4216.922852,4215.128418,4212.307617,4209.102539,4216.794922,4216.153809,4220.384766,4269.358887,4958.077148,4213.205078,4221.282227,0.000000,2.000000,,,,0.000000,0.000000,0.000000,0.000000,0.000000,0.000000,0.000000,0.000000,0.000000,0.000000,0.000000,0.000000,0.000000,0.000000,0.000000,0.000000,35.000000,0.000000,8204.000000,8097.000000,8198.000000,12226.000000,7674.000000,8574.000000,8148.000000,8112.000000,7647.000000,,,,,,,,,,,,,,,,,,,,,,,,,,,,,,,,,,,,,,,,,,,,,,,,,,,,,,,,,,,,,,,,,,,,,,,,,,,,,,,,,,,,,,,,,,,,,,,,,,,,,,,,,,,,,,,,,,,,
1598855198.256887,71.000000,0.000000,4215.769043,4212.307617,4214.487305,4214.615234,4213.846191,4211.025879,4211.153809,4216.794922,4217.692383,4216.153809,4269.743652,4956.922852,4211.282227,4220.769043,0.000000,2.000000,,,,0.000000,0.000000,0.000000,0.000000,0.000000,0.000000,0.000000,0.000000,0.000000,0.000000,0.000000,0.000000,0.000000,0.000000,0.000000,0.000000,,,,,,,,,,,,,,,,,,,,,,,,,,,,,,,,,,,,,,,,,,,,,,,,,,,,,,,,,,0.006347,0.009972,0.006545,0.004266,0.009354,0.015833,0.018797,0.055985,0.031240,0.040034,0.020488,0.013559,0.008812,0.029028,0.030873,0.021187,0.030509,0.015251,0.007311,0.014801,0.031690,0.008560,0.006574,0.020485,0.022358,0.021615,0.032730,0.037761,0.022386,0.038508,0.016955,0.008799,0.005407,0.015422,0.012988,0.003255,0.003262,0.002265,0.000774,0.000579,0.008608,0.011542,0.015855,0.018326,0.018942,0.028297,0.043537,0.046222,0.029536,0.035432,0.023663,0.020975,0.028247,0.005767,0.009051,0.058569,0.043085,0.016714,0.024681,0.016390,0.028803,0.017391,0.008947,0.036587,0.023951,0.037737,0.025958,0.007156,0.019645,0.034750
1598855198.264777,72.000000,0.000000,4216.538574,4211.666504,4215.256348,4215.769043,4211.538574,4210.384766,4212.307617,4216.794922,4221.282227,4212.820313,4271.410156,4956.666504,4216.410156,4222.436035,0.000000,2.000000,,,,0.000000,0.000000,0.000000,0.000000,0.000000,0.000000,0.000000,0.000000,0.000000,0.000000,0.000000,0.000000,0.000000,0.000000,0.000000,0.000000,36.000000,0.000000,8209.000000,8104.000000,8200.000000,12223.000000,7675.000000,8568.000000,8145.000000,8118.000000,7648.000000,,,,,,,,,,,,,,,,,,,,,,,,,,,,,,,,,,,,,,,,,,,,,,,,,,,,,,,,,,,,,,,,,,,,,,,,,,,,,,,,,,,,,,,,,,,,,,,,,,,,,,,,,,,,,,,,,,,,
1598855198.272569,73.000000,0.000000,4216.153809,4214.743652,4216.794922,4217.051270,4213.333496,4210.641113,4210.128418,4216.794922,4219.487305,4218.461426,4270.128418,4956.922852,4219.487305,4223.589844,0.000000,2.000000,,,,0.000000,0.000000,0.000000,0.000000,0.000000,0.000000,0.000000,0.000000,0.000000,0.000000,0.000000,0.000000,0.000000,0.000000,0.000000,0.000000,,,,,,,,,,,,,,,,,,,,,,,,,,,,,,,,,,,,,,,,,,,,,,,,,,,,,,,,,,,,,,,,,,,,,,,,,,,,,,,,,,,,,,,,,,,,,,,,,,,,,,,,,,,,,,,,,,,,,,,,,,,,,,,
1598855198.280461,74.000000,0.000000,4216.153809,4216.538574,4216.025879,4218.205078,4212.948730,4212.820313,4209.615234,4216.794922,4213.333496,4219.871582,4267.948730,4955.256348,4218.205078,4222.692383,0.000000,2.000000,,,,0.000000,0.000000,0.000000,0.000000,0.000000,0.000000,0.000000,0.000000,0.000000,0.000000,0.000000,0.000000,0.000000,0.000000,0.000000,0.000000,37.000000,0.000000,8208.000000,8102.000000,8205.000000,12164.000000,7668.000000,8577.000000,8147.000000,8113.000000,7648.000000,,,,,,,,,,,,,,,,,,,,,,,,,,,,,,,,,,,,,,,,,,,,,,,,,,,,,,,,,,,,,,,,,,,,,,,,,,,,,,,,,,,,,,,,,,,,,,,,,,,,,,,,,,,,,,,,,,,,
1598855198.288353,75.000000,0.000000,4214.871582,4216.666504,4212.692383,4215.897461,4210.769043,4215.769043,4211.153809,4216.794922,4213.846191,4218.333496,4270.256348,4953.077148,4218.846191,4220.769043,0.000000,2.000000,,,,0.000000,0.000000,0.000000,0.000000,0.000000,0.000000,0.000000,0.000000,0.000000,0.000000,0.000000,0.000000,0.000000,0.000000,0.000000,0.000000,,,,,,,,,,,,,,,,,,,,,,,,,,,,,,,,,,,,,,,,,,,,,,,,,,,,,,,,,,,,,,,,,,,,,,,,,,,,,,,,,,,,,,,,,,,,,,,,,,,,,,,,,,,,,,,,,,,,,,,,,,,,,,,
1598855198.296245,76.000000,0.000000,4213.205078,4215.000000,4215.512695,4213.846191,4211.025879,4215.384766,4211.538574,4216.794922,4217.436035,4220.256348,4272.307617,4952.436035,4217.051270,4222.051270,0.000000,2.000000,,,,0.000000,0.000000,0.000000,0.000000,0.000000,0.000000,0.000000,0.000000,0.000000,0.000000,0.000000,0.000000,0.000000,0.000000,0.000000,0.000000,38.000000,0.000000,8213.000000,8096.000000,8209.000000,12222.000000,7684.000000,8568.000000,8142.000000,8114.000000,7649.000000,,,,,,,,,,,,,,,,,,,,,,,,,,,,,,,,,,,,,,,,,,,,,,,,,,,,,,,,,,,,,,,,,,,,,,,,,,,,,,,,,,,,,,,,,,,,,,,,,,,,,,,,,,,,,,,,,,,,
1598855198.304137,77.000000,0.000000,4215.128418,4214.871582,4217.563965,4213.717773,4211.922852,4211.025879,4210.897461,4216.794922,4216.794922,4222.179688,4271.410156,4953.717773,4217.692383,4224.487305,0.000000,2.000000,,,,0.000000,0.000000,0.000000,0.000000,0.000000,0.000000,0.000000,0.000000,0.000000,0.000000,0.000000,0.000000,0.000000,0.000000,0.000000,0.000000,,,,,,,,,,,,,,,,,,,,,,,,,,,,,,,,,,,,,,,,,,,,,,,,,,,,,,,,,,,,,,,,,,,,,,,,,,,,,,,,,,,,,,,,,,,,,,,,,,,,,,,,,,,,,,,,,,,,,,,,,,,,,,,
1598855198.312029,78.000000,0.000000,4215.769043,4215.384766,4215.769043,4215.641113,4212.051270,4210.897461,4211.153809,4216.794922,4215.641113,4221.153809,4269.871582,4955.256348,4218.333496,4223.461426,0.000000,2.000000,,,,0.000000,0.000000,0.000000,0.000000,0.000000,0.000000,0.000000,0.000000,0.000000,0.000000,0.000000,0.000000,0.000000,0.000000,0.000000,0.000000,39.000000,0.000000,8210.000000,8098.000000,8206.000000,12226.000000,7675.000000,8566.000000,8143.000000,8115.000000,7647.000000,,,,,,,,,,,,,,,,,,,,,,,,,,,,,,,,,,,,,,,,,,,,,,,,,,,,,,,,,,,,,,,,,,,,,,,,,,,,,,,,,,,,,,,,,,,,,,,,,,,,,,,,,,,,,,,,,,,,
1598855198.319922,79.000000,0.000000,4212.820313,4215.128418,4214.230957,4216.922852,4211.025879,4212.563965,4210.897461,4216.794922,4215.897461,4220.000000,4271.153809,4955.384766,4219.102539,4222.692383,0.000000,2.000000,,,,0.000000,0.000000,0.000000,0.000000,0.000000,0.000000,0.000000,0.000000,0.000000,0.000000,0.000000,0.000000,0.000000,0.000000,0.000000,0.000000,,,,,,,,,,,,,,,,,,,,,,,,,,,,,,,,,,,,,,,,,,,,,,,,,,,,,,,,,,,,,,,,,,,,,,,,,,,,,,,,,,,,,,,,,,,,,,,,,,,,,,,,,,,,,,,,,,,,,,,,,,,,,,,
1598855198.327814,80.000000,0.000000,4213.205078,4214.743652,4215.769043,4216.794922,4212.307617,4212.307617,4211.410156,4216.794922,4215.641113,4218.461426,4270.641113,4954.487305,4218.077148,4222.948730,0.000000,2.000000,,,,0.000000,0.000000,0.000000,0.000000,0.000000,0.000000,0.000000,0.000000,0.000000,0.000000,0.000000,0.000000,0.000000,0.000000,0.000000,0.000000,40.000000,0.000000,8211.000000,8096.000000,8204.000000,12219.000000,7688.000000,8586.000000,8147.000000,8114.000000,7648.000000,,,,,,,,,,,,,,,,,,,,,,,,,,,,,,,,,,,,,,,,,,,,,,,,,,,,,,,,,,,,,,,,,,,,,,,,,,,,,,,,,,,,,,,,,,,,,,,,,,,,,,,,,,,,,,,,,,,,
1598855198.335706,81.000000,0.000000,4214.743652,4213.205078,4217.051270,4215.128418,4213.589844,4211.410156,4211.922852,4216.794922,4216.922852,4218.205078,4269.358887,4956.153809,4217.692383,4223.205078,0.000000,2.000000,,,,0.000000,0.000000,0.000000,0.000000,0.000000,0.000000,0.000000,0.000000,0.000000,0.000000,0.000000,0.000000,0.000000,0.000000,0.000000,0.000000,,,,,,,,,,,,,,,,,,,,,,,,,,,,,,,,,,,,,,,,,,,,,,,,,,,,,,,,,,,,,,,,,,,,,,,,,,,,,,,,,,,,,,,,,,,,,,,,,,,,,,,,,,,,,,,,,,,,,,,,,,,,,,,
1598855198.343598,82.000000,0.000000,4214.615234,4212.307617,4217.307617,4216.153809,4212.692383,4212.179688,4211.282227,4216.794922,4216.538574,4222.179688,4268.974121,4957.051270,4216.410156,4221.153809,0.000000,2.000000,,,,0.000000,0.000000,0.000000,0.000000,0.000000,0.000000,0.000000,0.000000,0.000000,0.000000,0.000000,0.000000,0.000000,0.000000,0.000000,0.000000,41.000000,0.000000,8209.000000,8096.000000,8208.000000,12219.000000,7676.000000,8566.000000,8140.000000,8112.000000,7647.000000,,,,,,,,,,,,,,,,,,,,,,,,,,,,,,,,,,,,,,,,,,,,,,,,,,,,,,,,,,,,,,,,,,,,,,,,,,,,,,,,,,,,,,,,,,,,,,,,,,,,,,,,,,,,,,,,,,,,
1598855198.351389,83.000000,0.000000,4215.256348,4212.307617,4216.666504,4217.948730,4210.384766,4212.692383,4209.615234,4216.794922,4214.102539,4224.102539,4268.461426,4956.666504,4216.025879,4220.000000,0.000000,2.000000,,,,0.000000,0.000000,0.000000,0.000000,0.000000,0.000000,0.000000,0.000000,0.000000,0.000000,0.000000,0.000000,0.000000,0.000000,0.000000,0.000000,,,,,,,,,,,,,,,,,,,,,,,,,,,,,,,,,,,,,,,,,,,,,,,,,,,,,,,,,,,,,,,,,,,,,,,,,,,,,,,,,,,,,,,,,,,,,,,,,,,,,,,,,,,,,,,,,,,,,,,,,,,,,,,
1598855198.359279,84.000000,0.000000,4213.589844,4215.256348,4215.128418,4215.641113,4211.794922,4211.410156,4210.000000,4216.794922,4215.384766,4219.871582,4268.461426,4956.153809,4215.000000,4221.153809,0.000000,2.000000,,,,0.000000,0.000000,0.000000,0.000000,0.000000,0.000000,0.000000,0.000000,0.000000,0.000000,0.000000,0.000000,0.000000,0.000000,0.000000,0.000000,42.000000,0.000000,8211.000000,8097.000000,8204.000000,12216.000000,7656.000000,8579.000000,8144.000000,8112.000000,7650.000000,,,,,,,,,,,,,,,,,,,,,,,,,,,,,,,,,,,,,,,,,,,,,,,,,,,,,,,,,,,,,,,,,,,,,,,,,,,,,,,,,,,,,,,,,,,,,,,,,,,,,,,,,,,,,,,,,,,,
1598855198.367169,85.000000,0.000000,4211.666504,4215.769043,4215.769043,4212.563965,4213.717773,4208.461426,4210.769043,4216.794922,4217.051270,4216.025879,4270.256348,4955.641113,4216.153809,4225.384766,0.000000,2.000000,,,,0.000000,0.000000,0.000000,0.000000,0.000000,0.000000,0.000000,0.000000,0.000000,0.000000,0.000000,0.000000,0.000000,0.000000,0.000000,0.000000,,,,,,,,,,,,,,,,,,,,,,,,,,,,,,,,,,,,,,,,,,,,,,,,,,,,,,,,,,,,,,,,,,,,,,,,,,,,,,,,,,,,,,,,,,,,,,,,,,,,,,,,,,,,,,,,,,,,,,,,,,,,,,,
1598855198.375060,86.000000,0.000000,4214.358887,4212.307617,4217.051270,4215.641113,4212.179688,4210.256348,4211.025879,4216.794922,4215.256348,4218.974121,4270.769043,4954.743652,4220.256348,4223.077148,0.000000,2.000000,,,,0.000000,0.000000,0.000000,0.000000,0.000000,0.000000,0.000000,0.000000,0.000000,0.000000,0.000000,0.000000,0.000000,0.000000,0.000000,0.000000,43.000000,0.000000,8209.000000,8095.000000,8204.000000,12227.000000,7692.000000,8578.000000,8145.000000,8124.000000,7649.000000,,,,,,,,,,,,,,,,,,,,,,,,,,,,,,,,,,,,,,,,,,,,,,,,,,,,,,,,,,,,,,,,,,,,,,,,,,,,,,,,,,,,,,,,,,,,,,,,,,,,,,,,,,,,,,,,,,,,
1598855198.382950,87.000000,0.000000,4216.282227,4212.179688,4217.820313,4217.820313,4211.153809,4215.128418,4209.743652,4216.794922,4215.641113,4220.769043,4268.717773,4956.922852,4219.358887,4218.717773,0.000000,2.000000,,,,0.000000,0.000000,0.000000,0.000000,0.000000,0.000000,0.000000,0.000000,0.000000,0.000000,0.000000,0.000000,0.000000,0.000000,0.000000,0.000000,,,,,,,,,,,,,,,,,,,,,,,,,,,,,,,,,,,,,,,,,,,,,,,,,,,,,,,,,,0.004865,0.010258,0.006441,0.004044,0.008538,0.012919,0.020751,0.055434,0.028736,0.038179,0.021965,0.010659,0.008654,0.025863,0.031734,0.022847,0.034644,0.015106,0.008941,0.013439,0.035937,0.010547,0.007008,0.018945,0.020515,0.021028,0.037051,0.038257,0.024780,0.042812,0.016333,0.007236,0.004750,0.014997,0.013669,0.003795,0.003787,0.002610,0.000884,0.000653,0.010133,0.012175,0.018906,0.019702,0.021841,0.032835,0.038825,0.046626,0.029412,0.040924,0.023070,0.021141,0.023935,0.006239,0.008617,0.051141,0.032020,0.014902,0.027527,0.017160,0.027808,0.014535,0.007016,0.037284,0.026426,0.036388,0.022557,0.008006,0.018691,0.031638
1598855198.390841,88.000000,0.000000,4215.000000,4212.820313,4214.871582,4214.230957,4212.692383,4214.615234,4210.769043,4216.794922,4219.487305,4221.025879,4267.051270,4955.256348,4218.461426,4221.025879,0.000000,2.000000,,,,0.000000,0.000000,0.000000,0.000000,0.000000,0.000000,0.000000,0.000000,0.000000,0.000000,0.000000,0.000000,0.000000,0.000000,0.000000,0.000000,44.000000,0.000000,8211.000000,8098.000000,8204.000000,12226.000000,7666.000000,8566.000000,8146.000000,8112.000000,7649.000000,,,,,,,,,,,,,,,,,,,,,,,,,,,,,,,,,,,,,,,,,,,,,,,,,,,,,,,,,,,,,,,,,,,,,,,,,,,,,,,,,,,,,,,,,,,,,,,,,,,,,,,,,,,,,,,,,,,,
1598855198.398731,89.000000,0.000000,4215.897461,4212.948730,4213.461426,4214.743652,4212.051270,4210.384766,4212.692383,4216.794922,4218.461426,4223.846191,4269.102539,4956.025879,4219.102539,4223.717773,0.000000,2.000000,,,,0.000000,0.000000,0.000000,0.000000,0.000000,0.000000,0.000000,0.000000,0.000000,0.000000,0.000000,0.000000,0.000000,0.000000,0.000000,0.000000,,,,,,,,,,,,,,,,,,,,,,,,,,,,,,,,,,,,,,,,,,,,,,,,,,,,,,,,,,,,,,,,,,,,,,,,,,,,,,,,,,,,,,,,,,,,,,,,,,,,,,,,,,,,,,,,,,,,,,,,,,,,,,,
1598855198.406622,90.000000,0.000000,4216.666504,4212.820313,4212.692383,4216.410156,4209.358887,4211.666504,4211.922852,4216.794922,4213.974121,4224.102539,4271.410156,4957.436035,4217.307617,4221.794922,0.000000,2.000000,,,,0.000000,0.000000,0.000000,0.000000,0.000000,0.000000,0.000000,0.000000,0.000000,0.000000,0.000000,0.000000,0.000000,0.000000,0.000000,0.000000,45.000000,0.000000,8212.000000,8093.000000,8211.000000,12226.000000,7687.000000,8571.000000,8144.000000,8134.000000,7647.000000,,,,,,,,,,,,,,,,,,,,,,,,,,,,,,,,,,,,,,,,,,,,,,,,,,,,,,,,,,,,,,,,,,,,,,,,,,,,,,,,,,,,,,,,,,,,,,,,,,,,,,,,,,,,,,,,,,,,
1598855198.414414,91.000000,0.000000,4215.128418,4212.307617,4215.256348,4216.666504,4211.153809,4213.205078,4211.282227,4216.794922,4212.692383,4219.487305,4269.615234,4956.538574,4216.410156,4220.897461,0.000000,2.000000,,,,0.000000,0.000000,0.000000,0.000000,0.000000,0.000000,0.000000,0.000000,0.000000,0.000000,0.000000,0.000000,0.000000,0.000000,0.000000,0.000000,,,,,,,,,,,,,,,,,,,,,,,,,,,,,,,,,,,,,,,,,,,,,,,,,,,,,,,,,,,,,,,,,,,,,,,,,,,,,,,,,,,,,,,,,,,,,,,,,,,,,,,,,,,,,,,,,,,,,,,,,,,,,,,
1598855198.422305,92.000000,0.000000,4215.641113,4211.282227,4216.922852,4215.641113,4212.436035,4210.128418,4212.820313,4216.794922,4215.897461,4218.846191,4267.692383,4955.897461,4217.948730,4221.282227,0.000000,2.000000,,,,0.000000,0.000000,0.000000,0.000000,0.000000,0.000000,0.000000,0.000000,0.000000,0.000000,0.000000,0.000000,0.000000,0.000000,0.000000,0.000000,46.000000,0.000000,8210.000000,8093.000000,8203.000000,12226.000000,7680.000000,8569.000000,8143.000000,8111.000000,7651.000000,,,,,,,,,,,,,,,,,,,,,,,,,,,,,,,,,,,,,,,,,,,,,,,,,,,,,,,,,,,,,,,,,,,,,,,,,,,,,,,,,,,,,,,,,,,,,,,,,,,,,,,,,,,,,,,,,,,,
1598855198.430197,93.000000,0.000000,4215.897461,4210.769043,4217.307617,4216.153809,4210.512695,4210.128418,4212.948730,4216.794922,4217.179688,4222.051270,4269.230957,4957.692383,4216.666504,4223.974121,0.000000,2.000000,,,,0.000000,0.000000,0.000000,0.000000,0.000000,0.000000,0.000000,0.000000,0.000000,0.000000,0.000000,0.000000,0.000000,0.000000,0.000000,0.000000,,,,,,,,,,,,,,,,,,,,,,,,,,,,,,,,,,,,,,,,,,,,,,,,,,,,,,,,,,,,,,,,,,,,,,,,,,,,,,,,,,,,,,,,,,,,,,,,,,,,,,,,,,,,,,,,,,,,,,,,,,,,,,,
1598855198.438088,94.000000,0.000000,4215.128418,4213.846191,4215.512695,4215.897461,4210.512695,4211.922852,4210.000000,4216.794922,4215.769043,4221.282227,4270.128418,4955.641113,4216.025879,4225.256348,0.000000,2.000000,,,,0.000000,0.000000,0.000000,0.000000,0.000000,0.000000,0.000000,0.000000,0.000000,0.000000,0.000000,0.000000,0.000000,0.000000,0.000000,0.000000,47.000000,0.000000,8208.000000,8095.000000,8203.000000,12216.000000,7670.000000,8586.000000,8146.000000,8114.000000,7647.000000,,,,,,,,,,,,,,,,,,,,,,,,,,,,,,,,,,,,,,,,,,,,,,,,,,,,,,,,,,,,,,,,,,,,,,,,,,,,,,,,,,,,,,,,,,,,,,,,,,,,,,,,,,,,,,,,,,,,
1598855198.445980,95.000000,0.000000,4215.897461,4217.179688,4215.000000,4217.051270,4213.077148,4212.051270,4209.358887,4216.794922,4215.384766,4219.615234,4268.461426,4954.358887,4216.794922,4222.820313,0.000000,2.000000,,,,0.000000,0.000000,0.000000,0.000000,0.000000,0.000000,0.000000,0.000000,0.000000,0.000000,0.000000,0.000000,0.000000,0.000000,0.000000,0.000000,,,,,,,,,,,,,,,,,,,,,,,,,,,,,,,,,,,,,,,,,,,,,,,,,,,,,,,,,,,,,,,,,,,,,,,,,,,,,,,,,,,,,,,,,,,,,,,,,,,,,,,,,,,,,,,,,,,,,,,,,,,,,,,
1598855198.453872,96.000000,0.000000,4216.794922,4214.102539,4214.871582,4216.025879,4212.436035,4210.256348,4210.000000,4216.794922,4216.922852,4222.820313,4270.769043,4956.794922,4218.461426,4223.846191,0.000000,2.000000,,,,0.000000,0.000000,0.000000,0.000000,0.000000,0.000000,0.000000,0.000000,0.000000,0.000000,0.000000,0.000000,0.000000,0.000000,0.000000,0.000000,48.000000,0.000000,8207.000000,8098.000000,8208.000000,12233.000000,7678.000000,8566.000000,8145.000000,8116.000000,7651.000000,,,,,,,,,,,,,,,,,,,,,,,,,,,,,,,,,,,,,,,,,,,,,,,,,,,,,,,,,,,,,,,,,,,,,,,,,,,,,,,,,,,,,,,,,,,,,,,,,,,,,,,,,,,,,,,,,,,,
1598855198.461763,97.000000,0.000000,4215.641113,4210.769043,4216.282227,4215.384766,4211.538574,4212.179688,4210.128418,4216.794922,4219.615234,4224.102539,4271.282227,4955.128418,4217.948730,4223.077148,0.000000,2.000000,,,,0.000000,0.000000,0.000000,0.000000,0.000000,0.000000,0.000000,0.000000,0.000000,0.000000,0.000000,0.000000,0.000000,0.000000,0.000000,0.000000,,,,,,,,,,,,,,,,,,,,,,,,,,,,,,,,,,,,,,,,,,,,,,,,,,,,,,,,,,,,,,,,,,,,,,,,,,,,,,,,,,,,,,,,,,,,,,,,,,,,,,,,,,,,,,,,,,,,,,,,,,,,,,,
1598855198.469655,98.000000,0.000000,4215.128418,4212.692383,4216.538574,4216.282227,4211.666504,4216.282227,4210.769043,4216.794922,4220.769043,4219.615234,4268.974121,4952.436035,4219.230957,4220.256348,0.000000,2.000000,,,,0.000000,0.000000,0.000000,0.000000,0.000000,0.000000,0.000000,0.000000,0.000000,0.000000,0.000000,0.000000,0.000000,0.000000,0.000000,0.000000,49.000000,0.000000,8211.000000,8100.000000,8206.000000,12224.000000,7664.000000,8572.000000,8145.000000,8117.000000,7648.000000,,,,,,,,,,,,,,,,,,,,,,,,,,,,,,,,,,,,,,,,,,,,,,,,,,,,,,,,,,,,,,,,,,,,,,,,,,,,,,,,,,,,,,,,,,,,,,,,,,,,,,,,,,,,,,,,,,,,
1598855198.477547,99.000000,0.000000,4216.666504,4214.358887,4217.307617,4217.436035,4210.897461,4216.666504,4210.512695,4216.794922,4218.461426,4218.974121,4267.692383,4954.871582,4216.922852,4221.282227,0.000000,2.000000,,,,0.000000,0.000000,0.000000,0.000000,0.000000,0.000000,0.000000,0.000000,0.000000,0.000000,0.000000,0.000000,0.000000,0.000000,0.000000,0.000000,,,,,,,,,,,,,,,,,,,,,,,,,,,,,,,,,,,,,,,,,,,,,,,,,,,,,,,,,,,,,,,,,,,,,,,,,,,,,,,,,,,,,,,,,,,,,,,,,,,,,,,,,,,,,,,,,,,,,,,,,,,,,,,
1598855198.485438,100.000000,0.000000,4217.307617,4212.179688,4217.179688,4216.282227,4210.128418,4211.666504,4209.358887,4216.794922,4216.666504,4223.077148,4267.692383,4957.307617,4215.897461,4224.615234,0.000000,2.000000,,,,0.000000,0.000000,0.000000,0.000000,0.000000,0.000000,0.000000,0.000000,0.000000,0.000000,0.000000,0.000000,0.000000,0.000000,0.000000,0.000000,50.000000,0.000000,8208.000000,8095.000000,8212.000000,12222.000000,7687.000000,8573.000000,8146.000000,8111.000000,7649.000000,,,,,,,,,,,,,,,,,,,,,,,,,,,,,,,,,,,,,,,,,,,,,,,,,,,,,,,,,,,,,,,,,,,,,,,,,,,,,,,,,,,,,,,,,,,,,,,,,,,,,,,,,,,,,,,,,,,,
1598855198.493228,101.000000,0.000000,4216.666504,4210.769043,4214.230957,4215.384766,4211.025879,4210.769043,4210.128418,4216.794922,4217.948730,4221.538574,4268.461426,4953.461426,4216.922852,4222.307617,0.000000,2.000000,,,,0.000000,0.000000,0.000000,0.000000,0.000000,0.000000,0.000000,0.000000,0.000000,0.000000,0.000000,0.000000,0.000000,0.000000,0.000000,0.000000,,,,,,,,,,,,,,,,,,,,,,,,,,,,,,,,,,,,,,,,,,,,,,,,,,,,,,,,,,,,,,,,,,,,,,,,,,,,,,,,,,,,,,,,,,,,,,,,,,,,,,,,,,,,,,,,,,,,,,,,,,,,,,,
1598855198.501118,102.000000,0.000000,4215.641113,4211.922852,4213.205078,4216.025879,4213.077148,4214.871582,4211.025879,4216.794922,4217.692383,4218.461426,4271.153809,4954.230957,4216.666504,4220.769043,0.000000,2.000000,,,,0.000000,0.000000,0.000000,0.000000,0.000000,0.000000,0.000000,0.000000,0.000000,0.000000,0.000000,0.000000,0.000000,0.000000,0.000000,0.000000,51.000000,0.000000,8211.000000,8099.000000,8209.000000,12219.000000,7687.000000,8591.000000,8142.000000,8114.000000,7650.000000,,,,,,,,,,,,,,,,,,,,,,,,,,,,,,,,,,,,,,,,,,,,,,,,,,,,,,,,,,,,,,,,,,,,,,,,,,,,,,,,,,,,,,,,,,,,,,,,,,,,,,,,,,,,,,,,,,,,
1598855198.509008,103.000000,0.000000,4215.769043,4215.256348,4215.000000,4216.794922,4213.333496,4214.487305,4212.307617,4216.794922,4216.410156,4220.512695,4270.897461,4958.077148,4215.769043,4221.666504,0.000000,2.000000,,,,0.000000,0.000000,0.000000,0.000000,0.000000,0.000000,0.000000,0.000000,0.000000,0.000000,0.000000,0.000000,0.000000,0.000000,0.000000,0.000000,,,,,,,,,,,,,,,,,,,,,,,,,,,,,,,,,,,,,,,,,,,,,,,,,,,,,,,,,,0.003580,0.010305,0.005948,0.003954,0.007478,0.010913,0.022587,0.053521,0.028227,0.039354,0.023268,0.008880,0.009208,0.022942,0.033043,0.023237,0.035495,0.014138,0.010833,0.013207,0.038057,0.013034,0.007929,0.018320,0.018847,0.020208,0.040343,0.036518,0.028742,0.046108,0.016542,0.005869,0.004301,0.014064,0.014468,0.003789,0.003765,0.002576,0.000866,0.000632,0.012040,0.012794,0.021402,0.021353,0.024941,0.036172,0.034893,0.043332,0.027829,0.045972,0.021385,0.021206,0.019498,0.007066,0.008449,0.043211,0.023259,0.015541,0.029705,0.017948,0.027824,0.013987,0.006645,0.037944,0.028741,0.034068,0.020023,0.009536,0.018189,0.029242
1598855198.516897,104.000000,0.000000,4215.897461,4214.615234,4215.641113,4215.512695,4211.922852,4211.282227,4214.102539,4216.794922,4217.179688,4221.282227,4269.358887,4957.179688,4217.051270,4221.666504,0.000000,2.000000,,,,0.000000,0.000000,0.000000,0.000000,0.000000,0.000000,0.000000,0.000000,0.000000,0.000000,0.000000,0.000000,0.000000,0.000000,0.000000,0.000000,52.000000,0.000000,8210.000000,8099.000000,8212.000000,12225.000000,7690.000000,8571.000000,8140.000000,8116.000000,7648.000000,,,,,,,,,,,,,,,,,,,,,,,,,,,,,,,,,,,,,,,,,,,,,,,,,,,,,,,,,,,,,,,,,,,,,,,,,,,,,,,,,,,,,,,,,,,,,,,,,,,,,,,,,,,,,,,,,,,,
1598855198.524787,105.000000,0.000000,4216.153809,4210.512695,4215.128418,4215.512695,4212.563965,4211.666504,4211.410156,4216.794922,4216.410156,4220.384766,4268.717773,4955.256348,4216.794922,4220.769043,0.000000,2.000000,,,,0.000000,0.000000,0.000000,0.000000,0.000000,0.000000,0.000000,0.000000,0.000000,0.000000,0.000000,0.000000,0.000000,0.000000,0.000000,0.000000,,,,,,,,,,,,,,,,,,,,,,,,,,,,,,,,,,,,,,,,,,,,,,,,,,,,,,,,,,,,,,,,,,,,,,,,,,,,,,,,,,,,,,,,,,,,,,,,,,,,,,,,,,,,,,,,,,,,,,,,,,,,,,,
1598855198.532677,106.000000,0.000000,4215.897461,4211.922852,4217.820313,4217.692383,4213.333496,4212.563965,4207.820313,4216.794922,4216.410156,4220.256348,4270.000000,4958.589844,4215.897461,4222.436035,0.000000,2.000000,,,,0.000000,0.000000,0.000000,0.000000,0.000000,0.000000,0.000000,0.000000,0.000000,0.000000,0.000000,0.000000,0.000000,0.000000,0.000000,0.000000,53.000000,0.000000,8214.000000,8096.000000,8210.000000,12230.000000,7693.000000,8568.000000,8141.000000,8113.000000,7648.000000,,,,,,,,,,,,,,,,,,,,,,,,,,,,,,,,,,,,,,,,,,,,,,,,,,,,,,,,,,,,,,,,,,,,,,,,,,,,,,,,,,,,,,,,,,,,,,,,,,,,,,,,,,,,,,,,,,,,
1598855198.540567,107.000000,0.000000,4214.871582,4214.102539,4217.179688,4215.512695,4211.538574,4211.538574,4210.384766,4216.794922,4217.820313,4220.897461,4271.025879,4956.666504,4217.563965,4223.589844,0.000000,2.000000,,,,0.000000,0.000000,0.000000,0.000000,0.000000,0.000000,0.000000,0.000000,0.000000,0.000000,0.000000,0.000000,0.000000,0.000000,0.000000,0.000000,,,,,,,,,,,,,,,,,,,,,,,,,,,,,,,,,,,,,,,,,,,,,,,,,,,,,,,,,,,,,,,,,,,,,,,,,,,,,,,,,,,,,,,,,,,,,,,,,,,,,,,,,,,,,,,,,,,,,,,,,,,,,,,
1598855198.548456,108.000000,0.000000,4215.512695,4212.820313,4215.384766,4212.948730,4210.641113,4211.922852,4213.077148,4216.794922,4216.410156,4219.102539,4269.358887,4954.615234,4216.922852,4221.410156,0.000000,2.000000,,,,0.000000,0.000000,0.000000,0.000000,0.000000,0.000000,0.000000,0.000000,0.000000,0.000000,0.000000,0.000000,0.000000,0.000000,0.000000,0.000000,54.000000,0.000000,8210.000000,8099.000000,8206.000000,12222.000000,7688.000000,8588.000000,8143.000000,8112.000000,7648.000000,,,,,,,,,,,,,,,,,,,,,,,,,,,,,,,,,,,,,,,,,,,,,,,,,,,,,,,,,,,,,,,,,,,,,,,,,,,,,,,,,,,,,,,,,,,,,,,,,,,,,,,,,,,,,,,,,,,,
1598855198.556248,109.000000,0.000000,4216.282227,4212.179688,4213.974121,4213.205078,4212.436035,4212.563965,4212.436035,4216.794922,4215.000000,4220.897461,4265.769043,4955.641113,4216.282227,4220.256348,0.000000,2.000000,,,,0.000000,0.000000,0.000000,0.000000,0.000000,0.000000,0.000000,0.000000,0.000000,0.000000,0.000000,0.000000,0.000000,0.000000,0.000000,0.000000,,,,,,,,,,,,,,,,,,,,,,,,,,,,,,,,,,,,,,,,,,,,,,,,,,,,,,,,,,,,,,,,,,,,,,,,,,,,,,,,,,,,,,,,,,,,,,,,,,,,,,,,,,,,,,,,,,,,,,,,,,,,,,,
1598855198.564139,110.000000,0.000000,4215.897461,4211.153809,4215.128418,4214.743652,4213.974121,4212.436035,4211.538574,4216.794922,4216.794922,4224.487305,4267.051270,4956.794922,4215.256348,4220.256348,0.000000,2.000000,,,,0.000000,0.000000,0.000000,0.000000,0.000000,0.000000,0.000000,0.000000,0.000000,0.000000,0.000000,0.000000,0.000000,0.000000,0.000000,0.000000,55.000000,0.000000,8210.000000,8102.000000,8205.000000,12222.000000,7684.000000,8582.000000,8140.000000,8111.000000,7647.000000,,,,,,,,,,,,,,,,,,,,,,,,,,,,,,,,,,,,,,,,,,,,,,,,,,,,,,,,,,,,,,,,,,,,,,,,,,,,,,,,,,,,,,,,,,,,,,,,,,,,,,,,,,,,,,,,,,,,
1598855198.572030,111.000000,0.000000,4215.256348,4210.384766,4214.871582,4214.230957,4212.436035,4211.410156,4210.641113,4216.794922,4217.948730,4224.230957,4270.000000,4956.410156,4215.128418,4220.641113,0.000000,2.000000,,,,0.000000,0.000000,0.000000,0.000000,0.000000,0.000000,0.000000,0.000000,0.000000,0.000000,0.000000,0.000000,0.000000,0.000000,0.000000,0.000000,,,,,,,,,,,,,,,,,,,,,,,,,,,,,,,,,,,,,,,,,,,,,,,,,,,,,,,,,,,,,,,,,,,,,,,,,,,,,,,,,,,,,,,,,,,,,,,,,,,,,,,,,,,,,,,,,,,,,,,,,,,,,,,
1598855198.579921,112.000000,0.000000,4216.025879,4213.077148,4214.358887,4215.769043,4211.282227,4212.436035,4211.025879,4216.794922,4216.153809,4221.794922,4268.205078,4957.820313,4214.102539,4222.948730,0.000000,2.000000,,,,0.000000,0.000000,0.000000,0.000000,0.000000,0.000000,0.000000,0.000000,0.000000,0.000000,0.000000,0.000000,0.000000,0.000000,0.000000,0.000000,56.000000,0.000000,8211.000000,8097.000000,8209.000000,12223.000000,7678.000000,8578.000000,8141.000000,8115.000000,7647.000000,,,,,,,,,,,,,,,,,,,,,,,,,,,,,,,,,,,,,,,,,,,,,,,,,,,,,,,,,,,,,,,,,,,,,,,,,,,,,,,,,,,,,,,,,,,,,,,,,,,,,,,,,,,,,,,,,,,,
1598855198.587812,113.000000,0.000000,4216.282227,4212.948730,4214.358887,4216.794922,4211.794922,4215.256348,4211.794922,4216.922852,4215.641113,4220.769043,4267.820313,4958.205078,4216.794922,4222.692383,0.000000,2.000000,,,,0.000000,0.000000,0.000000,0.000000,0.000000,0.000000,0.000000,0.000000,0.000000,0.000000,0.000000,0.000000,0.000000,0.000000,0.000000,0.000000,,,,,,,,,,,,,,,,,,,,,,,,,,,,,,,,,,,,,,,,,,,,,,,,,,,,,,,,,,,,,,,,,,,,,,,,,,,,,,,,,,,,,,,,,,,,,,,,,,,,,,,,,,,,,,,,,,,,,,,,,,,,,,,
1598855198.595704,114.000000,0.000000,4215.256348,4210.384766,4215.641113,4217.307617,4214.102539,4215.384766,4210.897461,4216.666504,4216.666504,4219.871582,4270.256348,4958.077148,4217.179688,4221.025879,0.000000,2.000000,,,,0.000000,0.000000,0.000000,0.000000,0.000000,0.000000,0.000000,0.000000,0.000000,0.000000,0.000000,0.000000,0.000000,0.000000,0.000000,0.000000,57.000000,0.000000,8210.000000,8096.000000,8202.000000,12220.000000,7659.000000,8575.000000,8141.000000,8118.000000,7647.000000,,,,,,,,,,,,,,,,,,,,,,,,,,,,,,,,,,,,,,,,,,,,,,,,,,,,,,,,,,,,,,,,,,,,,,,,,,,,,,,,,,,,,,,,,,,,,,,,,,,,,,,,,,,,,,,,,,,,
1598855198.603595,115.000000,0.000000,4215.000000,4210.512695,4214.230957,4215.897461,4213.333496,4210.897461,4209.615234,4216.666504,4217.948730,4220.641113,4271.153809,4959.487305,4217.307617,4223.717773,0.000000,2.000000,,,,0.000000,0.000000,0.000000,0.000000,0.000000,0.000000,0.000000,0.000000,0.000000,0.000000,0.000000,0.000000,0.000000,0.000000,0.000000,0.000000,,,,,,,,,,,,,,,,,,,,,,,,,,,,,,,,,,,,,,,,,,,,,,,,,,,,,,,,,,,,,,,,,,,,,,,,,,,,,,,,,,,,,,,,,,,,,,,,,,,,,,,,,,,,,,,,,,,,,,,,,,,,,,,
1598855198.611486,116.000000,0.000000,4215.256348,4212.563965,4214.358887,4214.871582,4211.794922,4210.256348,4210.641113,4217.692383,4216.153809,4222.179688,4269.102539,4959.743652,4216.922852,4223.846191,0.000000,2.000000,,,,0.000000,0.000000,0.000000,0.000000,0.000000,0.000000,0.000000,0.000000,0.000000,0.000000,0.000000,0.000000,0.000000,0.000000,0.000000,0.000000,58.000000,0.000000,8213.000000,8099.000000,8209.000000,12216.000000,7640.000000,8556.000000,8141.000000,8110.000000,7648.000000,,,,,,,,,,,,,,,,,,,,,,,,,,,,,,,,,,,,,,,,,,,,,,,,,,,,,,,,,,,,,,,,,,,,,,,,,,,,,,,,,,,,,,,,,,,,,,,,,,,,,,,,,,,,,,,,,,,,
1598855198.619279,117.000000,0.000000,4215.512695,4212.948730,4216.666504,4213.974121,4213.205078,4211.666504,4210.128418,4217.179688,4214.102539,4220.000000,4269.102539,4958.846191,4217.179688,4222.436035,0.000000,2.000000,,,,0.000000,0.000000,0.000000,0.000000,0.000000,0.000000,0.000000,0.000000,0.000000,0.000000,0.000000,0.000000,0.000000,0.000000,0.000000,0.000000,,,,,,,,,,,,,,,,,,,,,,,,,,,,,,,,,,,,,,,,,,,,,,,,,,,,,,,,,,,,,,,,,,,,,,,,,,,,,,,,,,,,,,,,,,,,,,,,,,,,,,,,,,,,,,,,,,,,,,,,,,,,,,,
1598855198.627171,118.000000,0.000000,4216.153809,4211.666504,4218.077148,4215.000000,4214.230957,4211.538574,4210.256348,4215.897461,4215.512695,4219.743652,4269.230957,4955.641113,4216.282227,4224.358887,0.000000,2.000000,,,,0.000000,0.000000,0.000000,0.000000,0.000000,0.000000,0.000000,0.000000,0.000000,0.000000,0.000000,0.000000,0.000000,0.000000,0.000000,0.000000,59.000000,0.000000,8209.000000,8102.000000,8205.000000,12221.000000,7684.000000,8581.000000,8144.000000,8112.000000,7648.000000,,,,,,,,,,,,,,,,,,,,,,,,,,,,,,,,,,,,,,,,,,,,,,,,,,,,,,,,,,,,,,,,,,,,,,,,,,,,,,,,,,,,,,,,,,,,,,,,,,,,,,,,,,,,,,,,,,,,
1598855198.635064,119.000000,0.000000,4216.922852,4211.922852,4217.307617,4216.025879,4212.820313,4213.333496,4210.897461,4217.179688,4216.922852,4222.820313,4268.974121,4955.769043,4215.000000,4224.230957,0.000000,2.000000,,,,0.000000,0.000000,0.000000,0.000000,0.000000,0.000000,0.000000,0.000000,0.000000,0.000000,0.000000,0.000000,0.000000,0.000000,0.000000,0.000000,,,,,,,,,,,,,,,,,,,,,,,,,,,,,,,,,,,,,,,,,,,,,,,,,,,,,,,,,,0.003033,0.010238,0.005272,0.004026,0.006511,0.010809,0.024469,0.051309,0.028529,0.042642,0.024243,0.008635,0.010980,0.020963,0.034040,0.022148,0.032865,0.012542,0.012637,0.014211,0.037470,0.015810,0.009618,0.018816,0.017427,0.019850,0.041989,0.032949,0.033606,0.046973,0.017494,0.004964,0.003989,0.012516,0.015079,0.003240,0.003204,0.002175,0.000725,0.000524,0.013720,0.013198,0.022979,0.022869,0.027813,0.038486,0.031831,0.037482,0.025544,0.049668,0.019008,0.020837,0.016445,0.008195,0.008668,0.035592,0.017430,0.018087,0.030727,0.018667,0.028967,0.015093,0.007343,0.039079,0.030144,0.031497,0.018846,0.011664,0.017958,0.028744
1598855198.642957,120.000000,0.000000,4217.051270,4214.487305,4215.384766,4215.000000,4212.948730,4214.743652,4211.282227,4217.179688,4215.897461,4222.820313,4270.512695,4958.205078,4216.282227,4222.820313,0.000000,2.000000,,,,0.000000,0.000000,0.000000,0.000000,0.000000,0.000000,0.000000,0.000000,0.000000,0.000000,0.000000,0.000000,0.000000,0.000000,0.000000,0.000000,60.000000,0.000000,8212.000000,8098.000000,8211.000000,12229.000000,7678.000000,8570.000000,8144.000000,8116.000000,7647.000000,,,,,,,,,,,,,,,,,,,,,,,,,,,,,,,,,,,,,,,,,,,,,,,,,,,,,,,,,,,,,,,,,,,,,,,,,,,,,,,,,,,,,,,,,,,,,,,,,,,,,,,,,,,,,,,,,,,,
1598855198.650849,121.000000,0.000000,4215.769043,4212.563965,4213.077148,4213.717773,4212.563965,4211.666504,4210.384766,4214.743652,4215.384766,4222.179688,4272.179688,4957.820313,4218.461426,4227.307617,0.000000,2.000000,,,,0.000000,0.000000,0.000000,0.000000,0.000000,0.000000,0.000000,0.000000,0.000000,0.000000,0.000000,0.000000,0.000000,0.000000,0.000000,0.000000,,,,,,,,,,,,,,,,,,,,,,,,,,,,,,,,,,,,,,,,,,,,,,,,,,,,,,,,,,,,,,,,,,,,,,,,,,,,,,,,,,,,,,,,,,,,,,,,,,,,,,,,,,,,,,,,,,,,,,,,,,,,,,,
1598855198.658742,122.000000,0.000000,4213.846191,4210.256348,4212.820313,4215.769043,4212.179688,4211.410156,4210.897461,4215.256348,4216.666504,4222.436035,4270.128418,4954.743652,4216.922852,4225.256348,0.000000,2.000000,,,,0.000000,0.000000,0.000000,0.000000,0.000000,0.000000,0.000000,0.000000,0.000000,0.000000,0.000000,0.000000,0.000000,0.000000,0.000000,0.000000,61.000000,0.000000,8207.000000,8102.000000,8206.000000,12225.000000,7687.000000,8585.000000,8143.000000,8097.000000,7648.000000,,,,,,,,,,,,,,,,,,,,,,,,,,,,,,,,,,,,,,,,,,,,,,,,,,,,,,,,,,,,,,,,,,,,,,,,,,,,,,,,,,,,,,,,,,,,,,,,,,,,,,,,,,,,,,,,,,,,
1598855198.666634,123.000000,0.000000,4213.974121,4212.436035,4216.025879,4218.077148,4213.205078,4212.436035,4210.769043,4217.563965,4217.692383,4223.077148,4270.128418,4958.333496,4214.487305,4220.512695,0.000000,2.000000,,,,0.000000,0.000000,0.000000,0.000000,0.000000,0.000000,0.000000,0.000000,0.000000,0.000000,0.000000,0.000000,0.000000,0.000000,0.000000,0.000000,,,,,,,,,,,,,,,,,,,,,,,,,,,,,,,,,,,,,,,,,,,,,,,,,,,,,,,,,,,,,,,,,,,,,,,,,,,,,,,,,,,,,,,,,,,,,,,,,,,,,,,,,,,,,,,,,,,,,,,,,,,,,,,
1598855198.674527,124.000000,0.000000,4215.641113,4213.077148,4215.769043,4216.153809,4212.692383,4212.436035,4211.282227,4216.666504,4217.436035,4222.563965,4271.538574,4959.230957,4214.615234,4220.384766,0.000000,2.000000,,,,0.000000,0.000000,0.000000,0.000000,0.000000,0.000000,0.000000,0.000000,0.000000,0.000000,0.000000,0.000000,0.000000,0.000000,0.000000,0.000000,62.000000,0.000000,8212.000000,8099.000000,8212.000000,12229.000000,7699.000000,8591.000000,8144.000000,8112.000000,7650.000000,,,,,,,,,,,,,,,,,,,,,,,,,,,,,,,,,,,,,,,,,,,,,,,,,,,,,,,,,,,,,,,,,,,,,,,,,,,,,,,,,,,,,,,,,,,,,,,,,,,,,,,,,,,,,,,,,,,,
1598855198.682420,125.000000,0.000000,4215.128418,4211.025879,4214.230957,4216.282227,4211.794922,4212.307617,4211.538574,4215.384766,4216.538574,4219.871582,4269.487305,4955.384766,4216.410156,4221.153809,0.000000,2.000000,,,,0.000000,0.000000,0.000000,0.000000,0.000000,0.000000,0.000000,0.000000,0.000000,0.000000,0.000000,0.000000,0.000000,0.000000,0.000000,0.000000,,,,,,,,,,,,,,,,,,,,,,,,,,,,,,,,,,,,,,,,,,,,,,,,,,,,,,,,,,,,,,,,,,,,,,,,,,,,,,,,,,,,,,,,,,,,,,,,,,,,,,,,,,,,,,,,,,,,,,,,,,,,,,,
1598855198.690312,126.000000,0.000000,4213.717773,4211.794922,4213.717773,4218.589844,4211.922852,4211.794922,4210.512695,4216.025879,4216.538574,4219.871582,4267.820313,4953.461426,4216.794922,4219.230957,0.000000,2.000000,,,,0.000000,0.000000,0.000000,0.000000,0.000000,0.000000,0.000000,0.000000,0.000000,0.000000,0.000000,0.000000,0.000000,0.000000,0.000000,0.000000,63.000000,0.000000,8211.000000,8096.000000,8210.000000,12221.000000,7663.000000,8568.000000,8144.000000,8116.000000,7648.000000,,,,,,,,,,,,,,,,,,,,,,,,,,,,,,,,,,,,,,,,,,,,,,,,,,,,,,,,,,,,,,,,,,,,,,,,,,,,,,,,,,,,,,,,,,,,,,,,,,,,,,,,,,,,,,,,,,,,
1598855198.698104,127.000000,0.000000,4215.256348,4212.948730,4215.384766,4218.461426,4211.794922,4213.205078,4209.358887,4216.153809,4217.051270,4220.897461,4269.487305,4956.410156,4216.282227,4220.769043,51.000000,2.000000,,,,0.000000,0.000000,0.000000,0.000000,0.000000,0.000000,0.000000,0.000000,0.000000,0.000000,0.000000,0.000000,0.000000,0.000000,0.000000,0.000000,,,,,,,,,,,,,,,,,,,,,,,,,,,,,,,,,,,,,,,,,,,,,,,,,,,,,,,,,,,,,,,,,,,,,,,,,,,,,,,,,,,,,,,,,,,,,,,,,,,,,,,,,,,,,,,,,,,,,,,,,,,,,,,
1598855198.705997,0.000000,0.000000,4216.794922,4213.846191,4214.871582,4214.487305,4212.692383,4215.641113,4210.641113,4215.897461,4217.051270,4222.051270,4271.025879,4955.897461,4216.794922,4222.692383,0.000000,2.000000,,,,0.000000,0.000000,0.000000,0.000000,0.000000,0.000000,0.000000,0.000000,0.000000,0.000000,0.000000,0.000000,0.000000,0.000000,0.000000,0.000000,0.000000,0.000000,8210.000000,8100.000000,8206.000000,12229.000000,7679.000000,8560.000000,8144.000000,8111.000000,7648.000000,,,,,,,,,,,,,,,,,,,,,,,,,,,,,,,,,,,,,,,,,,,,,,,,,,,,,,,,,,,,,,,,,,,,,,,,,,,,,,,,,,,,,,,,,,,,,,,,,,,,,,,,,,,,,,,,,,,,
1598855198.713889,1.000000,0.000000,4215.641113,4213.077148,4216.282227,4215.512695,4214.358887,4213.717773,4211.922852,4215.897461,4216.794922,4222.051270,4270.641113,4956.922852,4215.769043,4221.538574,0.000000,2.000000,,,,0.000000,0.000000,0.000000,0.000000,0.000000,0.000000,0.000000,0.000000,0.000000,0.000000,0.000000,0.000000,0.000000,0.000000,0.000000,0.000000,,,,,,,,,,,,,,,,,,,,,,,,,,,,,,,,,,,,,,,,,,,,,,,,,,,,,,,,,,,,,,,,,,,,,,,,,,,,,,,,,,,,,,,,,,,,,,,,,,,,,,,,,,,,,,,,,,,,,,,,,,,,,,,
1598855198.721781,2.000000,0.000000,4215.641113,4212.692383,4217.820313,4218.077148,4211.282227,4210.769043,4211.410156,4215.897461,4217.051270,4222.820313,4270.256348,4958.589844,4217.179688,4221.153809,0.000000,2.000000,,,,0.000000,0.000000,0.000000,0.000000,0.000000,0.000000,0.000000,0.000000,0.000000,0.000000,0.000000,0.000000,0.000000,0.000000,0.000000,0.000000,1.000000,0.000000,8208.000000,8103.000000,8208.000000,12212.000000,7678.000000,8584.000000,8143.000000,8116.000000,7648.000000,,,,,,,,,,,,,,,,,,,,,,,,,,,,,,,,,,,,,,,,,,,,,,,,,,,,,,,,,,,,,,,,,,,,,,,,,,,,,,,,,,,,,,,,,,,,,,,,,,,,,,,,,,,,,,,,,,,,
1598855198.729673,3.000000,0.000000,4216.666504,4215.128418,4215.256348,4217.051270,4209.358887,4213.077148,4211.282227,4215.897461,4217.179688,4223.333496,4269.230957,4956.025879,4216.922852,4221.153809,0.000000,2.000000,,,,0.000000,0.000000,0.000000,0.000000,0.000000,0.000000,0.000000,0.000000,0.000000,0.000000,0.000000,0.000000,0.000000,0.000000,0.000000,0.000000,,,,,,,,,,,,,,,,,,,,,,,,,,,,,,,,,,,,,,,,,,,,,,,,,,,,,,,,,,,,,,,,,,,,,,,,,,,,,,,,,,,,,,,,,,,,,,,,,,,,,,,,,,,,,,,,,,,,,,,,,,,,,,,
1598855198.737565,4.000000,0.000000,4217.051270,4215.128418,4212.436035,4213.717773,4211.794922,4212.307617,4210.000000,4215.897461,4216.794922,4223.717773,4270.384766,4954.230957,4215.256348,4222.436035,0.000000,2.000000,,,,0.000000,0.000000,0.000000,0.000000,0.000000,0.000000,0.000000,0.000000,0.000000,0.000000,0.000000,0.000000,0.000000,0.000000,0.000000,0.000000,2.000000,0.000000,8207.000000,8096.000000,8205.000000,12219.000000,7675.000000,8589.000000,8137.000000,8103.000000,7650.000000,,,,,,,,,,,,,,,,,,,,,,,,,,,,,,,,,,,,,,,,,,,,,,,,,,,,,,,,,,,,,,,,,,,,,,,,,,,,,,,,,,,,,,,,,,,,,,,,,,,,,,,,,,,,,,,,,,,,
1598855198.745457,5.000000,0.000000,4217.563965,4212.436035,4217.948730,4216.025879,4212.692383,4211.666504,4209.615234,4215.897461,4216.153809,4221.794922,4269.871582,4956.025879,4213.333496,4224.358887,0.000000,2.000000,,,,0.000000,0.000000,0.000000,0.000000,0.000000,0.000000,0.000000,0.000000,0.000000,0.000000,0.000000,0.000000,0.000000,0.000000,0.000000,0.000000,,,,,,,,,,,,,,,,,,,,,,,,,,,,,,,,,,,,,,,,,,,,,,,,,,,,,,,,,,,,,,,,,,,,,,,,,,,,,,,,,,,,,,,,,,,,,,,,,,,,,,,,,,,,,,,,,,,,,,,,,,,,,,,
1598855198.753349,6.000000,0.000000,4217.179688,4211.666504,4220.000000,4217.307617,4211.025879,4214.871582,4211.538574,4215.897461,4216.794922,4219.358887,4267.179688,4956.666504,4216.538574,4225.384766,0.000000,2.000000,,,,0.000000,0.000000,0.000000,0.000000,0.000000,0.000000,0.000000,0.000000,0.000000,0.000000,0.000000,0.000000,0.000000,0.000000,0.000000,0.000000,3.000000,0.000000,8209.000000,8096.000000,8210.000000,12162.000000,7667.000000,8568.000000,8149.000000,8113.000000,7647.000000,,,,,,,,,,,,,,,,,,,,,,,,,,,,,,,,,,,,,,,,,,,,,,,,,,,,,,,,,,,,,,,,,,,,,,,,,,,,,,,,,,,,,,,,,,,,,,,,,,,,,,,,,,,,,,,,,,,,
1598855198.761241,7.000000,0.000000,4216.025879,4211.410156,4216.025879,4215.000000,4212.436035,4214.615234,4212.051270,4215.897461,4217.692383,4220.384766,4266.410156,4954.487305,4216.025879,4224.743652,0.000000,2.000000,,,,0.000000,0.000000,0.000000,0.000000,0.000000,0.000000,0.000000,0.000000,0.000000,0.000000,0.000000,0.000000,0.000000,0.000000,0.000000,0.000000,,,,,,,,,,,,,,,,,,,,,,,,,,,,,,,,,,,,,,,,,,,,,,,,,,,,,,,,,,0.003520,0.010056,0.004715,0.004216,0.005897,0.012947,0.026566,0.049163,0.028766,0.046321,0.024541,0.009813,0.013865,0.020263,0.034055,0.019750,0.027536,0.010815,0.013985,0.016034,0.034123,0.018435,0.012191,0.019971,0.016395,0.020593,0.042342,0.028309,0.038358,0.044938,0.018743,0.004795,0.003716,0.010590,0.015351,0.002343,0.002296,0.001548,0.000515,0.000369,0.014876,0.013670,0.023967,0.023653,0.030052,0.040086,0.029992,0.030670,0.023918,0.051564,0.016408,0.019654,0.015786,0.009602,0.009318,0.029552,0.014268,0.021472,0.030277,0.019168,0.031151,0.016897,0.009013,0.040632,0.030045,0.029318,0.018607,0.014034,0.017989,0.030426
1598855198.769134,8.000000,0.000000,4216.153809,4212.820313,4214.487305,4215.512695,4213.974121,4208.974121,4210.128418,4215.897461,4217.051270,4221.025879,4270.128418,4954.743652,4214.615234,4223.974121,0.000000,2.000000,,,,0.000000,0.000000,0.000000,0.000000,0.000000,0.000000,0.000000,0.000000,0.000000,0.000000,0.000000,0.000000,0.000000,0.000000,0.000000,0.000000,4.000000,0.000000,8210.000000,8101.000000,8206.000000,12223.000000,7709.000000,8584.000000,8141.000000,8117.000000,7649.000000,,,,,,,,,,,,,,,,,,,,,,,,,,,,,,,,,,,,,,,,,,,,,,,,,,,,,,,,,,,,,,,,,,,,,,,,,,,,,,,,,,,,,,,,,,,,,,,,,,,,,,,,,,,,,,,,,,,,
1598855198.776925,9.000000,0.000000,4216.922852,4215.512695,4214.615234,4216.538574,4212.948730,4209.487305,4210.769043,4215.897461,4216.410156,4218.974121,4270.000000,4954.358887,4214.102539,4221.410156,0.000000,2.000000,,,,0.000000,0.000000,0.000000,0.000000,0.000000,0.000000,0.000000,0.000000,0.000000,0.000000,0.000000,0.000000,0.000000,0.000000,0.000000,0.000000,,,,,,,,,,,,,,,,,,,,,,,,,,,,,,,,,,,,,,,,,,,,,,,,,,,,,,,,,,,,,,,,,,,,,,,,,,,,,,,,,,,,,,,,,,,,,,,,,,,,,,,,,,,,,,,,,,,,,,,,,,,,,,,
1598855198.784817,10.000000,0.000000,4216.153809,4215.000000,4211.794922,4214.871582,4210.128418,4214.871582,4212.051270,4215.897461,4217.179688,4219.487305,4266.410156,4954.871582,4213.846191,4221.410156,0.000000,2.000000,,,,0.000000,0.000000,0.000000,0.000000,0.000000,0.000000,0.000000,0.000000,0.000000,0.000000,0.000000,0.000000,0.000000,0.000000,0.000000,0.000000,5.000000,0.000000,8214.000000,8098.000000,8212.000000,12226.000000,7670.000000,8558.000000,8144.000000,8113.000000,7647.000000,,,,,,,,,,,,,,,,,,,,,,,,,,,,,,,,,,,,,,,,,,,,,,,,,,,,,,,,,,,,,,,,,,,,,,,,,,,,,,,,,,,,,,,,,,,,,,,,,,,,,,,,,,,,,,,,,,,,
1598855198.792708,11.000000,0.000000,4215.641113,4215.384766,4213.205078,4213.974121,4210.384766,4215.641113,4212.179688,4215.897461,4218.461426,4222.307617,4266.153809,4955.384766,4213.974121,4223.077148,0.000000,2.000000,,,,0.000000,0.000000,0.000000,0.000000,0.000000,0.000000,0.000000,0.000000,0.000000,0.000000,0.000000,0.000000,0.000000,0.000000,0.000000,0.000000,,,,,,,,,,,,,,,,,,,,,,,,,,,,,,,,,,,,,,,,,,,,,,,,,,,,,,,,,,,,,,,,,,,,,,,,,,,,,,,,,,,,,,,,,,,,,,,,,,,,,,,,,,,,,,,,,,,,,,,,,,,,,,,
1598855198.800599,12.000000,0.000000,4215.641113,4216.538574,4217.692383,4215.641113,4213.205078,4211.025879,4211.025879,4215.897461,4217.692383,4224.358887,4270.512695,4956.410156,4216.794922,4223.717773,0.000000,2.000000,,,,0.000000,0.000000,0.000000,0.000000,0.000000,0.000000,0.000000,0.000000,0.000000,0.000000,0.000000,0.000000,0.000000,0.000000,0.000000,0.000000,6.000000,0.000000,8211.000000,8099.000000,8202.000000,12220.000000,7687.000000,8592.000000,8144.000000,8118.000000,7651.000000,,,,,,,,,,,,,,,,,,,,,,,,,,,,,,,,,,,,,,,,,,,,,,,,,,,,,,,,,,,,,,,,,,,,,,,,,,,,,,,,,,,,,,,,,,,,,,,,,,,,,,,,,,,,,,,,,,,,
1598855198.808491,13.000000,0.000000,4214.871582,4215.641113,4217.436035,4217.051270,4213.717773,4209.615234,4209.871582,4215.897461,4216.025879,4222.436035,4271.538574,4954.102539,4219.230957,4221.282227,0.000000,2.000000,,,,0.000000,0.000000,0.000000,0.000000,0.000000,0.000000,0.000000,0.000000,0.000000,0.000000,0.000000,0.000000,0.000000,0.000000,0.000000,0.000000,,,,,,,,,,,,,,,,,,,,,,,,,,,,,,,,,,,,,,,,,,,,,,,,,,,,,,,,,,,,,,,,,,,,,,,,,,,,,,,,,,,,,,,,,,,,,,,,,,,,,,,,,,,,,,,,,,,,,,,,,,,,,,,
1598855198.816382,14.000000,0.000000,4214.102539,4215.128418,4216.025879,4216.794922,4212.948730,4214.487305,4210.000000,4215.897461,4216.666504,4220.256348,4267.820313,4953.717773,4214.871582,4221.153809,0.000000,2.000000,,,,0.000000,0.000000,0.000000,0.000000,0.000000,0.000000,0.000000,0.000000,0.000000,0.000000,0.000000,0.000000,0.000000,0.000000,0.000000,0.000000,7.000000,0.000000,8208.000000,8091.000000,8197.000000,12221.000000,7667.000000,8579.000000,8142.000000,8113.000000,7645.000000,,,,,,,,,,,,,,,,,,,,,,,,,,,,,,,,,,,,,,,,,,,,,,,,,,,,,,,,,,,,,,,,,,,,,,,,,,,,,,,,,,,,,,,,,,,,,,,,,,,,,,,,,,,,,,,,,,,,
1598855198.824274,15.000000,0.000000,4213.974121,4213.077148,4214.487305,4214.743652,4214.102539,4216.922852,4210.769043,4215.897461,4218.717773,4223.077148,4266.922852,4954.743652,4212.307617,4223.589844,0.000000,2.000000,,,,0.000000,0.000000,0.000000,0.000000,0.000000,0.000000,0.000000,0.000000,0.000000,0.000000,0.000000,0.000000,0.000000,0.000000,0.000000,0.000000,,,,,,,,,,,,,,,,,,,,,,,,,,,,,,,,,,,,,,,,,,,,,,,,,,,,,,,,,,,,,,,,,,,,,,,,,,,,,,,,,,,,,,,,,,,,,,,,,,,,,,,,,,,,,,,,,,,,,,,,,,,,,,,
1598855198.832165,16.000000,0.000000,4215.128418,4210.897461,4215.641113,4213.461426,4213.589844,4213.205078,4210.897461,4215.897461,4216.025879,4223.333496,4270.641113,4955.384766,4214.871582,4222.692383,0.000000,2.000000,,,,0.000000,0.000000,0.000000,0.000000,0.000000,0.000000,0.000000,0.000000,0.000000,0.000000,0.000000,0.000000,0.000000,0.000000,0.000000,0.000000,8.000000,0.000000,8214.000000,8093.000000,8200.000000,12227.000000,7664.000000,8559.000000,8142.000000,8111.000000,7645.000000,,,,,,,,,,,,,,,,,,,,,,,,,,,,,,,,,,,,,,,,,,,,,,,,,,,,,,,,,,,,,,,,,,,,,,,,,,,,,,,,,,,,,,,,,,,,,,,,,,,,,,,,,,,,,,,,,,,,
1598855198.840056,17.000000,0.000000,4214.871582,4215.512695,4216.794922,4215.000000,4211.153809,4211.282227,4211.282227,4215.897461,4215.512695,4220.512695,4270.641113,4953.846191,4217.563965,4220.769043,0.000000,2.000000,,,,0.000000,0.000000,0.000000,0.000000,0.000000,0.000000,0.000000,0.000000,0.000000,0.000000,0.000000,0.000000,0.000000,0.000000,0.000000,0.000000,,,,,,,,,,,,,,,,,,,,,,,,,,,,,,,,,,,,,,,,,,,,,,,,,,,,,,,,,,,,,,,,,,,,,,,,,,,,,,,,,,,,,,,,,,,,,,,,,,,,,,,,,,,,,,,,,,,,,,,,,,,,,,,
1598855198.847948,18.000000,0.000000,4213.974121,4216.794922,4218.077148,4217.820313,4212.307617,4211.794922,4210.384766,4216.025879,4219.358887,4220.641113,4267.436035,4954.102539,4216.153809,4221.794922,0.000000,2.000000,,,,0.000000,0.000000,0.000000,0.000000,0.000000,0.000000,0.000000,0.000000,0.000000,0.000000,0.000000,0.000000,0.000000,0.000000,0.000000,0.000000,9.000000,0.000000,8211.000000,8105.000000,8200.000000,12219.000000,7692.000000,8586.000000,8146.000000,8114.000000,7648.000000,,,,,,,,,,,,,,,,,,,,,,,,,,,,,,,,,,,,,,,,,,,,,,,,,,,,,,,,,,,,,,,,,,,,,,,,,,,,,,,,,,,,,,,,,,,,,,,,,,,,,,,,,,,,,,,,,,,,
1598855198.855738,19.000000,0.000000,4214.487305,4213.205078,4216.666504,4215.769043,4213.461426,4211.153809,4209.871582,4215.897461,4220.128418,4221.025879,4267.436035,4954.871582,4214.615234,4222.307617,0.000000,2.000000,,,,0.000000,0.000000,0.000000,0.000000,0.000000,0.000000,0.000000,0.000000,0.000000,0.000000,0.000000,0.000000,0.000000,0.000000,0.000000,0.000000,,,,,,,,,,,,,,,,,,,,,,,,,,,,,,,,,,,,,,,,,,,,,,,,,,,,,,,,,,,,,,,,,,,,,,,,,,,,,,,,,,,,,,,,,,,,,,,,,,,,,,,,,,,,,,,,,,,,,,,,,,,,,,,
1598855198.863629,20.000000,0.000000,4215.897461,4214.102539,4215.769043,4215.512695,4212.051270,4211.153809,4211.794922,4215.897461,4216.410156,4219.102539,4270.641113,4955.256348,4215.512695,4219.358887,0.000000,2.000000,,,,0.000000,0.000000,0.000000,0.000000,0.000000,0.000000,0.000000,0.000000,0.000000,0.000000,0.000000,0.000000,0.000000,0.000000,0.000000,0.000000,10.000000,0.000000,8210.000000,8093.000000,8207.000000,12231.000000,7674.000000,8573.000000,8143.000000,8110.000000,7646.000000,,,,,,,,,,,,,,,,,,,,,,,,,,,,,,,,,,,,,,,,,,,,,,,,,,,,,,,,,,,,,,,,,,,,,,,,,,,,,,,,,,,,,,,,,,,,,,,,,,,,,,,,,,,,,,,,,,,,
1598855198.871519,21.000000,0.000000,4214.230957,4216.153809,4214.871582,4216.922852,4210.769043,4211.666504,4212.820313,4215.897461,4214.871582,4221.025879,4272.948730,4954.615234,4217.436035,4220.641113,0.000000,2.000000,,,,0.000000,0.000000,0.000000,0.000000,0.000000,0.000000,0.000000,0.000000,0.000000,0.000000,0.000000,0.000000,0.000000,0.000000,0.000000,0.000000,,,,,,,,,,,,,,,,,,,,,,,,,,,,,,,,,,,,,,,,,,,,,,,,,,,,,,,,,,,,,,,,,,,,,,,,,,,,,,,,,,,,,,,,,,,,,,,,,,,,,,,,,,,,,,,,,,,,,,,,,,,,,,,
1598855198.879410,22.000000,0.000000,4213.589844,4214.743652,4215.384766,4217.563965,4210.384766,4211.538574,4212.051270,4215.769043,4215.897461,4223.589844,4270.384766,4953.717773,4217.051270,4223.974121,0.000000,2.000000,,,,0.000000,0.000000,0.000000,0.000000,0.000000,0.000000,0.000000,0.000000,0.000000,0.000000,0.000000,0.000000,0.000000,0.000000,0.000000,0.000000,11.000000,0.000000,8210.000000,8095.000000,8209.000000,12218.000000,7680.000000,8590.000000,8144.000000,8121.000000,7647.000000,,,,,,,,,,,,,,,,,,,,,,,,,,,,,,,,,,,,,,,,,,,,,,,,,,,,,,,,,,,,,,,,,,,,,,,,,,,,,,,,,,,,,,,,,,,,,,,,,,,,,,,,,,,,,,,,,,,,
1598855198.887300,23.000000,0.000000,4215.256348,4214.102539,4214.358887,4214.230957,4210.641113,4210.000000,4210.897461,4215.128418,4217.563965,4220.769043,4267.948730,4953.333496,4216.794922,4222.436035,0.000000,2.000000,,,,0.000000,0.000000,0.000000,0.000000,0.000000,0.000000,0.000000,0.000000,0.000000,0.000000,0.000000,0.000000,0.000000,0.000000,0.000000,0.000000,,,,,,,,,,,,,,,,,,,,,,,,,,,,,,,,,,,,,,,,,,,,,,,,,,,,,,,,,,0.004886,0.009690,0.004497,0.004468,0.005712,0.016848,0.028524,0.047002,0.028637,0.048565,0.023778,0.011905,0.017245,0.020888,0.032694,0.016575,0.021184,0.009612,0.014591,0.017899,0.028605,0.020280,0.015448,0.020894,0.015873,0.022428,0.042196,0.023462,0.041976,0.040780,0.019627,0.005455,0.003503,0.008879,0.015263,0.001409,0.001344,0.000905,0.000306,0.000238,0.015597,0.014582,0.024794,0.023212,0.031314,0.041204,0.029488,0.024537,0.024282,0.051627,0.014203,0.017639,0.017482,0.011185,0.010374,0.025874,0.013568,0.024725,0.028380,0.019415,0.033765,0.018709,0.011787,0.041979,0.028292,0.027977,0.018602,0.016077,0.018513,0.033523
1598855198.895191,24.000000,0.000000,4213.717773,4216.282227,4214.487305,4214.102539,4213.717773,4210.384766,4210.000000,4214.230957,4218.589844,4216.282227,4268.717773,4953.846191,4214.743652,4220.512695,0.000000,2.000000,,,,0.000000,0.000000,0.000000,0.000000,0.000000,0.000000,0.000000,0.000000,0.000000,0.000000,0.000000,0.000000,0.000000,0.000000,0.000000,0.000000,12.000000,0.000000,8211.000000,8095.000000,8211.000000,12219.000000,7693.000000,8585.000000,8143.000000,8111.000000,7645.000000,,,,,,,,,,,,,,,,,,,,,,,,,,,,,,,,,,,,,,,,,,,,,,,,,,,,,,,,,,,,,,,,,,,,,,,,,,,,,,,,,,,,,,,,,,,,,,,,,,,,,,,,,,,,,,,,,,,,
1598855198.903081,25.000000,0.000000,4213.205078,4214.230957,4217.179688,4215.512695,4213.205078,4211.282227,4208.589844,4215.128418,4217.051270,4216.666504,4270.512695,4954.358887,4215.641113,4222.820313,0.000000,2.000000,,,,0.000000,0.000000,0.000000,0.000000,0.000000,0.000000,0.000000,0.000000,0.000000,0.000000,0.000000,0.000000,0.000000,0.000000,0.000000,0.000000,,,,,,,,,,,,,,,,,,,,,,,,,,,,,,,,,,,,,,,,,,,,,,,,,,,,,,,,,,,,,,,,,,,,,,,,,,,,,,,,,,,,,,,,,,,,,,,,,,,,,,,,,,,,,,,,,,,,,,,,,,,,,,,
1598855198.910972,26.000000,0.000000,4216.153809,4211.282227,4216.538574,4216.410156,4209.871582,4213.461426,4209.358887,4216.794922,4215.256348,4219.358887,4268.846191,4953.717773,4217.051270,4220.769043,0.000000,2.000000,,,,0.000000,0.000000,0.000000,0.000000,0.000000,0.000000,0.000000,0.000000,0.000000,0.000000,0.000000,0.000000,0.000000,0.000000,0.000000,0.000000,13.000000,0.000000,8209.000000,8096.000000,8204.000000,12230.000000,7671.000000,8564.000000,8144.000000,8111.000000,7646.000000,,,,,,,,,,,,,,,,,,,,,,,,,,,,,,,,,,,,,,,,,,,,,,,,,,,,,,,,,,,,,,,,,,,,,,,,,,,,,,,,,,,,,,,,,,,,,,,,,,,,,,,,,,,,,,,,,,,,
1598855198.918763,27.000000,0.000000,4217.179688,4210.897461,4215.641113,4217.051270,4209.871582,4215.128418,4210.128418,4216.666504,4216.153809,4221.025879,4267.307617,4954.102539,4218.077148,4218.974121,0.000000,2.000000,,,,0.000000,0.000000,0.000000,0.000000,0.000000,0.000000,0.000000,0.000000,0.000000,0.000000,0.000000,0.000000,0.000000,0.000000,0.000000,0.000000,,,,,,,,,,,,,,,,,,,,,,,,,,,,,,,,,,,,,,,,,,,,,,,,,,,,,,,,,,,,,,,,,,,,,,,,,,,,,,,,,,,,,,,,,,,,,,,,,,,,,,,,,,,,,,,,,,,,,,,,,,,,,,,
1598855198.926655,28.000000,0.000000,4215.128418,4213.205078,4218.077148,4215.000000,4212.436035,4215.769043,4211.922852,4216.153809,4216.794922,4219.615234,4268.717773,4954.230957,4217.179688,4219.487305,0.000000,2.000000,,,,0.000000,0.000000,0.000000,0.000000,0.000000,0.000000,0.000000,0.000000,0.000000,0.000000,0.000000,0.000000,0.000000,0.000000,0.000000,0.000000,14.000000,0.000000,8206.000000,8103.000000,8203.000000,12224.000000,7672.000000,8571.000000,8140.000000,8115.000000,7648.000000,,,,,,,,,,,,,,,,,,,,,,,,,,,,,,,,,,,,,,,,,,,,,,,,,,,,,,,,,,,,,,,,,,,,,,,,,,,,,,,,,,,,,,,,,,,,,,,,,,,,,,,,,,,,,,,,,,,,
1598855198.934547,29.000000,0.000000,4213.974121,4213.077148,4217.307617,4213.077148,4211.922852,4214.230957,4212.307617,4216.666504,4216.153809,4218.205078,4270.512695,4956.153809,4216.153809,4221.922852,0.000000,2.000000,,,,0.000000,0.000000,0.000000,0.000000,0.000000,0.000000,0.000000,0.000000,0.000000,0.000000,0.000000,0.000000,0.000000,0.000000,0.000000,0.000000,,,,,,,,,,,,,,,,,,,,,,,,,,,,,,,,,,,,,,,,,,,,,,,,,,,,,,,,,,,,,,,,,,,,,,,,,,,,,,,,,,,,,,,,,,,,,,,,,,,,,,,,,,,,,,,,,,,,,,,,,,,,,,,
1598855198.942438,30.000000,0.000000,4215.641113,4211.025879,4214.358887,4213.717773,4213.717773,4212.948730,4211.538574,4217.179688,4218.589844,4218.461426,4269.102539,4955.128418,4214.615234,4222.179688,0.000000,2.000000,,,,0.000000,0.000000,0.000000,0.000000,0.000000,0.000000,0.000000,0.000000,0.000000,0.000000,0.000000,0.000000,0.000000,0.000000,0.000000,0.000000,15.000000,0.000000,8213.000000,8098.000000,8201.000000,12219.000000,7683.000000,8588.000000,8146.000000,8117.000000,7648.000000,,,,,,,,,,,,,,,,,,,,,,,,,,,,,,,,,,,,,,,,,,,,,,,,,,,,,,,,,,,,,,,,,,,,,,,,,,,,,,,,,,,,,,,,,,,,,,,,,,,,,,,,,,,,,,,,,,,,
1598855198.950330,31.000000,0.000000,4216.410156,4211.922852,4216.794922,4215.512695,4216.025879,4214.871582,4211.410156,4216.794922,4221.922852,4219.358887,4268.589844,4953.461426,4213.974121,4222.436035,0.000000,2.000000,,,,0.000000,0.000000,0.000000,0.000000,0.000000,0.000000,0.000000,0.000000,0.000000,0.000000,0.000000,0.000000,0.000000,0.000000,0.000000,0.000000,,,,,,,,,,,,,,,,,,,,,,,,,,,,,,,,,,,,,,,,,,,,,,,,,,,,,,,,,,,,,,,,,,,,,,,,,,,,,,,,,,,,,,,,,,,,,,,,,,,,,,,,,,,,,,,,,,,,,,,,,,,,,,,
1598855198.958222,32.000000,0.000000,4215.897461,4213.461426,4218.333496,4215.256348,4212.948730,4214.743652,4212.051270,4216.794922,4219.102539,4221.282227,4269.743652,4953.205078,4216.410156,4220.769043,0.000000,2.000000,,,,0.000000,0.000000,0.000000,0.000000,0.000000,0.000000,0.000000,0.000000,0.000000,0.000000,0.000000,0.000000,0.000000,0.000000,0.000000,0.000000,16.000000,0.000000,8212.000000,8097.000000,8199.000000,12230.000000,7713.000000,8583.000000,8147.000000,8113.000000,7647.000000,,,,,,,,,,,,,,,,,,,,,,,,,,,,,,,,,,,,,,,,,,,,,,,,,,,,,,,,,,,,,,,,,,,,,,,,,,,,,,,,,,,,,,,,,,,,,,,,,,,,,,,,,,,,,,,,,,,,
1598855198.966113,33.000000,0.000000,4215.512695,4212.948730,4216.410156,4216.282227,4211.410156,4213.333496,4210.897461,4216.922852,4216.282227,4220.641113,4270.769043,4955.897461,4215.512695,4221.666504,0.000000,2.000000,,,,0.000000,0.000000,0.000000,0.000000,0.000000,0.000000,0.000000,0.000000,0.000000,0.000000,0.000000,0.000000,0.000000,0.000000,0.000000,0.000000,,,,,,,,,,,,,,,,,,,,,,,,,,,,,,,,,,,,,,,,,,,,,,,,,,,,,,,,,,,,,,,,,,,,,,,,,,,,,,,,,,,,,,,,,,,,,,,,,,,,,,,,,,,,,,,,,,,,,,,,,,,,,,,
1598855198.974005,34.000000,0.000000,4216.922852,4212.436035,4215.384766,4216.282227,4214.487305,4214.102539,4211.153809,4216.794922,4217.307617,4220.641113,4270.128418,4954.615234,4213.461426,4222.563965,0.000000,2.000000,,,,0.000000,0.000000,0.000000,0.000000,0.000000,0.000000,0.000000,0.000000,0.000000,0.000000,0.000000,0.000000,0.000000,0.000000,0.000000,0.000000,17.000000,0.000000,8209.000000,8096.000000,8204.000000,12219.000000,7682.000000,8573.000000,8143.000000,8117.000000,7651.000000,,,,,,,,,,,,,,,,,,,,,,,,,,,,,,,,,,,,,,,,,,,,,,,,,,,,,,,,,,,,,,,,,,,,,,,,,,,,,,,,,,,,,,,,,,,,,,,,,,,,,,,,,,,,,,,,,,,,
1598855198.981897,35.000000,0.000000,4215.769043,4214.102539,4216.153809,4214.871582,4213.974121,4212.563965,4211.922852,4216.794922,4215.512695,4221.153809,4271.794922,4953.974121,4215.000000,4220.512695,0.000000,2.000000,,,,0.000000,0.000000,0.000000,0.000000,0.000000,0.000000,0.000000,0.000000,0.000000,0.000000,0.000000,0.000000,0.000000,0.000000,0.000000,0.000000,,,,,,,,,,,,,,,,,,,,,,,,,,,,,,,,,,,,,,,,,,,,,,,,,,,,,,,,,,,,,,,,,,,,,,,,,,,,,,,,,,,,,,,,,,,,,,,,,,,,,,,,,,,,,,,,,,,,,,,,,,,,,,,
1598855198.989788,36.000000,0.000000,4214.615234,4213.717773,4214.615234,4215.384766,4209.871582,4211.153809,4210.128418,4216.794922,4215.512695,4219.487305,4271.794922,4953.589844,4218.205078,4219.487305,0.000000,2.000000,,,,0.000000,0.000000,0.000000,0.000000,0.000000,0.000000,0.000000,0.000000,0.000000,0.000000,0.000000,0.000000,0.000000,0.000000,0.000000,0.000000,18.000000,0.000000,8211.000000,8097.000000,8202.000000,12223.000000,7691.000000,8590.000000,8145.000000,8115.000000,7649.000000,,,,,,,,,,,,,,,,,,,,,,,,,,,,,,,,,,,,,,,,,,,,,,,,,,,,,,,,,,,,,,,,,,,,,,,,,,,,,,,,,,,,,,,,,,,,,,,,,,,,,,,,,,,,,,,,,,,,
1598855198.997579,37.000000,0.000000,4216.282227,4211.025879,4217.307617,4216.922852,4210.897461,4213.077148,4209.615234,4216.794922,4219.230957,4217.307617,4268.205078,4955.769043,4215.256348,4221.794922,0.000000,2.000000,,,,0.000000,0.000000,0.000000,0.000000,0.000000,0.000000,0.000000,0.000000,0.000000,0.000000,0.000000,0.000000,0.000000,0.000000,0.000000,0.000000,,,,,,,,,,,,,,,,,,,,,,,,,,,,,,,,,,,,,,,,,,,,,,,,,,,,,,,,,,,,,,,,,,,,,,,,,,,,,,,,,,,,,,,,,,,,,,,,,,,,,,,,,,,,,,,,,,,,,,,,,,,,,,,
1598855199.005470,38.000000,0.000000,4216.153809,4209.230957,4218.077148,4213.717773,4212.692383,4214.487305,4210.641113,4216.794922,4216.282227,4220.256348,4267.948730,4959.871582,4214.615234,4224.230957,0.000000,2.000000,,,,0.000000,0.000000,0.000000,0.000000,0.000000,0.000000,0.000000,0.000000,0.000000,0.000000,0.000000,0.000000,0.000000,0.000000,0.000000,0.000000,19.000000,0.000000,8209.000000,8091.000000,8210.000000,12223.000000,7685.000000,8586.000000,8140.000000,8113.000000,7649.000000,,,,,,,,,,,,,,,,,,,,,,,,,,,,,,,,,,,,,,,,,,,,,,,,,,,,,,,,,,,,,,,,,,,,,,,,,,,,,,,,,,,,,,,,,,,,,,,,,,,,,,,,,,,,,,,,,,,,
1598855199.013361,39.000000,0.000000,4215.384766,4209.487305,4218.205078,4214.358887,4211.538574,4212.179688,4210.000000,4216.794922,4212.948730,4221.794922,4270.128418,4960.256348,4217.692383,4222.436035,0.000000,2.000000,,,,0.000000,0.000000,0.000000,0.000000,0.000000,0.000000,0.000000,0.000000,0.000000,0.000000,0.000000,0.000000,0.000000,0.000000,0.000000,0.000000,,,,,,,,,,,,,,,,,,,,,,,,,,,,,,,,,,,,,,,,,,,,,,,,,,,,,,,,,,0.006883,0.009107,0.004675,0.004734,0.005858,0.020991,0.029948,0.044487,0.027691,0.048160,0.022119,0.014499,0.020231,0.022701,0.030021,0.013374,0.015648,0.009422,0.014330,0.019168,0.021973,0.020549,0.018869,0.020835,0.015824,0.024423,0.042249,0.019059,0.043813,0.036153,0.019602,0.006777,0.003438,0.007982,0.014854,0.000696,0.000613,0.000434,0.000165,0.000221,0.015947,0.016049,0.025732,0.021423,0.031337,0.041547,0.030264,0.020499,0.026759,0.050029,0.012730,0.014965,0.020451,0.012689,0.011782,0.024284,0.014639,0.026855,0.025253,0.019510,0.035584,0.020155,0.015426,0.042166,0.025265,0.027832,0.018590,0.017267,0.019772,0.036592
1598855199.021251,40.000000,0.000000,4216.794922,4213.717773,4216.538574,4217.051270,4210.384766,4210.769043,4209.871582,4216.794922,4216.666504,4219.743652,4271.410156,4956.538574,4218.461426,4219.102539,0.000000,2.000000,,,,0.000000,0.000000,0.000000,0.000000,0.000000,0.000000,0.000000,0.000000,0.000000,0.000000,0.000000,0.000000,0.000000,0.000000,0.000000,0.000000,20.000000,0.000000,8210.000000,8094.000000,8210.000000,12227.000000,7709.000000,8582.000000,8144.000000,8112.000000,7647.000000,,,,,,,,,,,,,,,,,,,,,,,,,,,,,,,,,,,,,,,,,,,,,,,,,,,,,,,,,,,,,,,,,,,,,,,,,,,,,,,,,,,,,,,,,,,,,,,,,,,,,,,,,,,,,,,,,,,,
1598855199.029142,41.000000,0.000000,4215.897461,4215.769043,4215.897461,4215.641113,4211.282227,4211.666504,4211.410156,4216.794922,4217.563965,4220.384766,4269.487305,4956.666504,4214.487305,4220.384766,0.000000,2.000000,,,,0.000000,0.000000,0.000000,0.000000,0.000000,0.000000,0.000000,0.000000,0.000000,0.000000,0.000000,0.000000,0.000000,0.000000,0.000000,0.000000,,,,,,,,,,,,,,,,,,,,,,,,,,,,,,,,,,,,,,,,,,,,,,,,,,,,,,,,,,,,,,,,,,,,,,,,,,,,,,,,,,,,,,,,,,,,,,,,,,,,,,,,,,,,,,,,,,,,,,,,,,,,,,,
1598855199.037033,42.000000,0.000000,4213.589844,4213.205078,4218.974121,4213.974121,4212.948730,4210.897461,4211.025879,4216.794922,4216.538574,4221.794922,4268.589844,4958.333496,4216.025879,4223.461426,0.000000,2.000000,,,,0.000000,0.000000,0.000000,0.000000,0.000000,0.000000,0.000000,0.000000,0.000000,0.000000,0.000000,0.000000,0.000000,0.000000,0.000000,0.000000,21.000000,0.000000,8210.000000,8095.000000,8204.000000,12226.000000,7705.000000,8577.000000,8142.000000,8117.000000,7648.000000,,,,,,,,,,,,,,,,,,,,,,,,,,,,,,,,,,,,,,,,,,,,,,,,,,,,,,,,,,,,,,,,,,,,,,,,,,,,,,,,,,,,,,,,,,,,,,,,,,,,,,,,,,,,,,,,,,,,
1598855199.044923,43.000000,0.000000,4215.256348,4214.487305,4220.384766,4217.692383,4213.974121,4210.897461,4211.282227,4216.794922,4217.436035,4220.256348,4268.717773,4956.153809,4216.666504,4221.922852,0.000000,2.000000,,,,0.000000,0.000000,0.000000,0.000000,0.000000,0.000000,0.000000,0.000000,0.000000,0.000000,0.000000,0.000000,0.000000,0.000000,0.000000,0.000000,,,,,,,,,,,,,,,,,,,,,,,,,,,,,,,,,,,,,,,,,,,,,,,,,,,,,,,,,,,,,,,,,,,,,,,,,,,,,,,,,,,,,,,,,,,,,,,,,,,,,,,,,,,,,,,,,,,,,,,,,,,,,,,
1598855199.052814,44.000000,0.000000,4217.179688,4215.384766,4216.153809,4218.333496,4213.461426,4210.512695,4212.051270,4216.794922,4216.922852,4220.128418,4269.743652,4954.743652,4214.358887,4222.051270,0.000000,2.000000,,,,0.000000,0.000000,0.000000,0.000000,0.000000,0.000000,0.000000,0.000000,0.000000,0.000000,0.000000,0.000000,0.000000,0.000000,0.000000,0.000000,22.000000,0.000000,8209.000000,8097.000000,8205.000000,12226.000000,7677.000000,8569.000000,8146.000000,8112.000000,7651.000000,,,,,,,,,,,,,,,,,,,,,,,,,,,,,,,,,,,,,,,,,,,,,,,,,,,,,,,,,,,,,,,,,,,,,,,,,,,,,,,,,,,,,,,,,,,,,,,,,,,,,,,,,,,,,,,,,,,,
1598855199.060603,45.000000,0.000000,4216.538574,4211.666504,4214.102539,4216.282227,4212.563965,4212.436035,4211.282227,4216.794922,4215.512695,4218.846191,4270.641113,4955.897461,4213.333496,4224.230957,0.000000,2.000000,,,,0.000000,0.000000,0.000000,0.000000,0.000000,0.000000,0.000000,0.000000,0.000000,0.000000,0.000000,0.000000,0.000000,0.000000,0.000000,0.000000,,,,,,,,,,,,,,,,,,,,,,,,,,,,,,,,,,,,,,,,,,,,,,,,,,,,,,,,,,,,,,,,,,,,,,,,,,,,,,,,,,,,,,,,,,,,,,,,,,,,,,,,,,,,,,,,,,,,,,,,,,,,,,,
1598855199.068491,46.000000,0.000000,4216.794922,4211.794922,4215.384766,4215.384766,4211.922852,4212.563965,4211.282227,4216.794922,4216.922852,4216.922852,4269.871582,4958.077148,4213.461426,4221.666504,0.000000,2.000000,,,,0.000000,0.000000,0.000000,0.000000,0.000000,0.000000,0.000000,0.000000,0.000000,0.000000,0.000000,0.000000,0.000000,0.000000,0.000000,0.000000,23.000000,0.000000,8211.000000,8100.000000,8210.000000,12221.000000,7671.000000,8565.000000,8146.000000,8112.000000,7648.000000,,,,,,,,,,,,,,,,,,,,,,,,,,,,,,,,,,,,,,,,,,,,,,,,,,,,,,,,,,,,,,,,,,,,,,,,,,,,,,,,,,,,,,,,,,,,,,,,,,,,,,,,,,,,,,,,,,,,
1598855199.076380,47.000000,0.000000,4216.666504,4213.589844,4214.487305,4216.025879,4213.333496,4211.153809,4211.922852,4216.794922,4217.692383,4216.153809,4268.974121,4956.153809,4213.589844,4218.846191,0.000000,2.000000,,,,0.000000,0.000000,0.000000,0.000000,0.000000,0.000000,0.000000,0.000000,0.000000,0.000000,0.000000,0.000000,0.000000,0.000000,0.000000,0.000000,,,,,,,,,,,,,,,,,,,,,,,,,,,,,,,,,,,,,,,,,,,,,,,,,,,,,,,,,,,,,,,,,,,,,,,,,,,,,,,,,,,,,,,,,,,,,,,,,,,,,,,,,,,,,,,,,,,,,,,,,,,,,,,
1598855199.084268,48.000000,0.000000,4215.641113,4212.307617,4215.769043,4214.871582,4214.871582,4210.384766,4209.871582,4216.794922,4216.922852,4216.538574,4270.641113,4955.512695,4216.025879,4223.717773,0.000000,2.000000,,,,0.000000,0.000000,0.000000,0.000000,0.000000,0.000000,0.000000,0.000000,0.000000,0.000000,0.000000,0.000000,0.000000,0.000000,0.000000,0.000000,24.000000,0.000000,8212.000000,8097.000000,8211.000000,12224.000000,7684.000000,8576.000000,8144.000000,8117.000000,7648.000000,,,,,,,,,,,,,,,,,,,,,,,,,,,,,,,,,,,,,,,,,,,,,,,,,,,,,,,,,,,,,,,,,,,,,,,,,,,,,,,,,,,,,,,,,,,,,,,,,,,,,,,,,,,,,,,,,,,,
1598855199.092157,49.000000,0.000000,4215.769043,4214.743652,4217.563965,4213.333496,4214.102539,4211.794922,4210.256348,4216.794922,4217.307617,4218.077148,4270.641113,4956.282227,4218.333496,4224.358887,0.000000,2.000000,,,,0.000000,0.000000,0.000000,0.000000,0.000000,0.000000,0.000000,0.000000,0.000000,0.000000,0.000000,0.000000,0.000000,0.000000,0.000000,0.000000,,,,,,,,,,,,,,,,,,,,,,,,,,,,,,,,,,,,,,,,,,,,,,,,,,,,,,,,,,,,,,,,,,,,,,,,,,,,,,,,,,,,,,,,,,,,,,,,,,,,,,,,,,,,,,,,,,,,,,,,,,,,,,,
1598855199.100045,50.000000,0.000000,4216.153809,4218.077148,4216.282227,4216.282227,4212.820313,4212.563965,4212.307617,4216.794922,4214.871582,4219.102539,4267.563965,4957.436035,4219.487305,4219.230957,0.000000,2.000000,,,,0.000000,0.000000,0.000000,0.000000,0.000000,0.000000,0.000000,0.000000,0.000000,0.000000,0.000000,0.000000,0.000000,0.000000,0.000000,0.000000,25.000000,0.000000,8206.000000,8098.000000,8207.000000,12225.000000,7664.000000,8566.000000,8140.000000,8112.000000,7647.000000,,,,,,,,,,,,,,,,,,,,,,,,,,,,,,,,,,,,,,,,,,,,,,,,,,,,,,,,,,,,,,,,,,,,,,,,,,,,,,,,,,,,,,,,,,,,,,,,,,,,,,,,,,,,,,,,,,,,
1598855199.107832,51.000000,0.000000,4216.282227,4216.153809,4215.384766,4217.179688,4213.846191,4211.153809,4213.205078,4216.794922,4213.974121,4217.563965,4267.179688,4955.256348,4218.205078,4217.051270,0.000000,2.000000,,,,0.000000,0.000000,0.000000,0.000000,0.000000,0.000000,0.000000,0.000000,0.000000,0.000000,0.000000,0.000000,0.000000,0.000000,0.000000,0.000000,,,,,,,,,,,,,,,,,,,,,,,,,,,,,,,,,,,,,,,,,,,,,,,,,,,,,,,,,,,,,,,,,,,,,,,,,,,,,,,,,,,,,,,,,,,,,,,,,,,,,,,,,,,,,,,,,,,,,,,,,,,,,,,
1598855199.115717,52.000000,0.000000,4216.153809,4211.922852,4216.666504,4215.256348,4213.333496,4211.538574,4213.205078,4216.794922,4215.641113,4220.128418,4269.615234,4953.974121,4214.871582,4222.563965,0.000000,2.000000,,,,0.000000,0.000000,0.000000,0.000000,0.000000,0.000000,0.000000,0.000000,0.000000,0.000000,0.000000,0.000000,0.000000,0.000000,0.000000,0.000000,26.000000,0.000000,8209.000000,8100.000000,8203.000000,12220.000000,7665.000000,8574.000000,8146.000000,8118.000000,7647.000000,,,,,,,,,,,,,,,,,,,,,,,,,,,,,,,,,,,,,,,,,,,,,,,,,,,,,,,,,,,,,,,,,,,,,,,,,,,,,,,,,,,,,,,,,,,,,,,,,,,,,,,,,,,,,,,,,,,,
1598855199.123603,53.000000,0.000000,4215.128418,4214.615234,4217.051270,4215.384766,4212.692383,4213.077148,4210.897461,4216.794922,4216.410156,4221.922852,4268.974121,4955.512695,4215.641113,4225.384766,0.000000,2.000000,,,,0.000000,0.000000,0.000000,0.000000,0.000000,0.000000,0.000000,0.000000,0.000000,0.000000,0.000000,0.000000,0.000000,0.000000,0.000000,0.000000,,,,,,,,,,,,,,,,,,,,,,,,,,,,,,,,,,,,,,,,,,,,,,,,,,,,,,,,,,,,,,,,,,,,,,,,,,,,,,,,,,,,,,,,,,,,,,,,,,,,,,,,,,,,,,,,,,,,,,,,,,,,,,,
1598855199.131489,54.000000,0.000000,4214.743652,4218.205078,4218.846191,4217.307617,4214.358887,4211.025879,4210.641113,4216.794922,4216.282227,4216.794922,4268.205078,4958.589844,4218.333496,4221.282227,0.000000,2.000000,,,,0.000000,0.000000,0.000000,0.000000,0.000000,0.000000,0.000000,0.000000,0.000000,0.000000,0.000000,0.000000,0.000000,0.000000,0.000000,0.000000,27.000000,0.000000,8210.000000,8104.000000,8208.000000,12226.000000,7675.000000,8578.000000,8139.000000,8116.000000,7647.000000,,,,,,,,,,,,,,,,,,,,,,,,,,,,,,,,,,,,,,,,,,,,,,,,,,,,,,,,,,,,,,,,,,,,,,,,,,,,,,,,,,,,,,,,,,,,,,,,,,,,,,,,,,,,,,,,,,,,
1598855199.139280,55.000000,0.000000,4216.025879,4212.948730,4216.153809,4214.230957,4213.846191,4208.589844,4212.307617,4216.794922,4217.563965,4216.538574,4269.871582,4956.922852,4217.179688,4218.846191,0.000000,2.000000,,,,0.000000,0.000000,0.000000,0.000000,0.000000,0.000000,0.000000,0.000000,0.000000,0.000000,0.000000,0.000000,0.000000,0.000000,0.000000,0.000000,,,,,,,,,,,,,,,,,,,,,,,,,,,,,,,,,,,,,,,,,,,,,,,,,,,,,,,,,,0.009273,0.008299,0.005108,0.004980,0.006170,0.023487,0.030458,0.041529,0.025626,0.044986,0.019580,0.017362,0.021928,0.025570,0.026508,0.010925,0.012167,0.010315,0.013345,0.019657,0.015541,0.019016,0.021623,0.019574,0.015991,0.025604,0.042822,0.015194,0.043788,0.032712,0.018372,0.008366,0.003634,0.008173,0.014154,0.000342,0.000243,0.000223,0.000133,0.000379,0.015883,0.017676,0.026582,0.018731,0.030103,0.040563,0.031488,0.019617,0.030372,0.046956,0.012135,0.012186,0.023206,0.013740,0.013588,0.023853,0.016708,0.027395,0.021239,0.019606,0.035219,0.021003,0.019204,0.040379,0.021748,0.029329,0.018829,0.017368,0.021679,0.038062
1598855199.147171,56.000000,0.000000,4216.538574,4209.871582,4213.974121,4213.589844,4213.846191,4212.179688,4211.538574,4216.794922,4217.563965,4218.461426,4269.615234,4954.615234,4214.487305,4222.563965,0.000000,2.000000,,,,0.000000,0.000000,0.000000,0.000000,0.000000,0.000000,0.000000,0.000000,0.000000,0.000000,0.000000,0.000000,0.000000,0.000000,0.000000,0.000000,28.000000,0.000000,8212.000000,8097.000000,8209.000000,12227.000000,7661.000000,8567.000000,8142.000000,8114.000000,7650.000000,,,,,,,,,,,,,,,,,,,,,,,,,,,,,,,,,,,,,,,,,,,,,,,,,,,,,,,,,,,,,,,,,,,,,,,,,,,,,,,,,,,,,,,,,,,,,,,,,,,,,,,,,,,,,,,,,,,,
1598855199.155062,57.000000,0.000000,4215.000000,4213.589844,4214.102539,4215.000000,4214.230957,4213.077148,4210.000000,4216.794922,4216.922852,4218.717773,4268.846191,4954.743652,4217.820313,4223.717773,0.000000,2.000000,,,,0.000000,0.000000,0.000000,0.000000,0.000000,0.000000,0.000000,0.000000,0.000000,0.000000,0.000000,0.000000,0.000000,0.000000,0.000000,0.000000,,,,,,,,,,,,,,,,,,,,,,,,,,,,,,,,,,,,,,,,,,,,,,,,,,,,,,,,,,,,,,,,,,,,,,,,,,,,,,,,,,,,,,,,,,,,,,,,,,,,,,,,,,,,,,,,,,,,,,,,,,,,,,,
1598855199.162953,58.000000,0.000000,4214.358887,4213.717773,4216.538574,4216.025879,4213.589844,4212.436035,4212.051270,4216.794922,4218.461426,4220.641113,4268.205078,4954.358887,4216.794922,4221.410156,0.000000,2.000000,,,,0.000000,0.000000,0.000000,0.000000,0.000000,0.000000,0.000000,0.000000,0.000000,0.000000,0.000000,0.000000,0.000000,0.000000,0.000000,0.000000,29.000000,0.000000,8210.000000,8097.000000,8206.000000,12218.000000,7682.000000,8587.000000,8143.000000,8116.000000,7645.000000,,,,,,,,,,,,,,,,,,,,,,,,,,,,,,,,,,,,,,,,,,,,,,,,,,,,,,,,,,,,,,,,,,,,,,,,,,,,,,,,,,,,,,,,,,,,,,,,,,,,,,,,,,,,,,,,,,,,
1598855199.170844,59.000000,0.000000,4215.000000,4209.358887,4215.897461,4215.769043,4213.077148,4215.512695,4213.333496,4216.794922,4218.589844,4221.025879,4268.333496,4953.333496,4214.487305,4223.077148,0.000000,2.000000,,,,0.000000,0.000000,0.000000,0.000000,0.000000,0.000000,0.000000,0.000000,0.000000,0.000000,0.000000,0.000000,0.000000,0.000000,0.000000,0.000000,,,,,,,,,,,,,,,,,,,,,,,,,,,,,,,,,,,,,,,,,,,,,,,,,,,,,,,,,,,,,,,,,,,,,,,,,,,,,,,,,,,,,,,,,,,,,,,,,,,,,,,,,,,,,,,,,,,,,,,,,,,,,,,
1598855199.178735,60.000000,0.000000,4216.410156,4212.179688,4214.871582,4216.153809,4213.461426,4215.256348,4211.538574,4216.794922,4216.538574,4219.230957,4268.974121,4956.153809,4213.974121,4222.948730,0.000000,2.000000,,,,0.000000,0.000000,0.000000,0.000000,0.000000,0.000000,0.000000,0.000000,0.000000,0.000000,0.000000,0.000000,0.000000,0.000000,0.000000,0.000000,30.000000,0.000000,8210.000000,8094.000000,8211.000000,12222.000000,7678.000000,8576.000000,8142.000000,8113.000000,7650.000000,,,,,,,,,,,,,,,,,,,,,,,,,,,,,,,,,,,,,,,,,,,,,,,,,,,,,,,,,,,,,,,,,,,,,,,,,,,,,,,,,,,,,,,,,,,,,,,,,,,,,,,,,,,,,,,,,,,,
1598855199.186626,61.000000,0.000000,4215.769043,4212.820313,4216.794922,4216.538574,4212.051270,4210.384766,4209.871582,4216.794922,4216.538574,4217.692383,4270.000000,4958.461426,4214.871582,4219.871582,0.000000,2.000000,,,,0.000000,0.000000,0.000000,0.000000,0.000000,0.000000,0.000000,0.000000,0.000000,0.000000,0.000000,0.000000,0.000000,0.000000,0.000000,0.000000,,,,,,,,,,,,,,,,,,,,,,,,,,,,,,,,,,,,,,,,,,,,,,,,,,,,,,,,,,,,,,,,,,,,,,,,,,,,,,,,,,,,,,,,,,,,,,,,,,,,,,,,,,,,,,,,,,,,,,,,,,,,,,,
1598855199.194517,62.000000,0.000000,4214.743652,4210.769043,4217.948730,4217.179688,4213.461426,4211.410156,4209.230957,4216.794922,4217.179688,4217.948730,4269.871582,4957.820313,4212.820313,4221.922852,0.000000,2.000000,,,,0.000000,0.000000,0.000000,0.000000,0.000000,0.000000,0.000000,0.000000,0.000000,0.000000,0.000000,0.000000,0.000000,0.000000,0.000000,0.000000,31.000000,0.000000,8209.000000,8092.000000,8214.000000,12214.000000,7649.000000,8570.000000,8144.000000,8112.000000,7650.000000,,,,,,,,,,,,,,,,,,,,,,,,,,,,,,,,,,,,,,,,,,,,,,,,,,,,,,,,,,,,,,,,,,,,,,,,,,,,,,,,,,,,,,,,,,,,,,,,,,,,,,,,,,,,,,,,,,,,
1598855199.202309,63.000000,0.000000,4214.871582,4213.077148,4214.871582,4215.897461,4214.102539,4213.333496,4209.871582,4216.794922,4216.538574,4220.641113,4271.410156,4957.051270,4213.461426,4226.153809,0.000000,2.000000,,,,0.000000,0.000000,0.000000,0.000000,0.000000,0.000000,0.000000,0.000000,0.000000,0.000000,0.000000,0.000000,0.000000,0.000000,0.000000,0.000000,,,,,,,,,,,,,,,,,,,,,,,,,,,,,,,,,,,,,,,,,,,,,,,,,,,,,,,,,,,,,,,,,,,,,,,,,,,,,,,,,,,,,,,,,,,,,,,,,,,,,,,,,,,,,,,,,,,,,,,,,,,,,,,
1598855199.210201,64.000000,0.000000,4212.307617,4211.794922,4213.846191,4216.282227,4212.563965,4212.307617,4211.410156,4216.794922,4214.743652,4219.615234,4270.128418,4954.487305,4216.282227,4222.436035,0.000000,2.000000,,,,0.000000,0.000000,0.000000,0.000000,0.000000,0.000000,0.000000,0.000000,0.000000,0.000000,0.000000,0.000000,0.000000,0.000000,0.000000,0.000000,32.000000,0.000000,8212.000000,8093.000000,8203.000000,12223.000000,7676.000000,8584.000000,8143.000000,8103.000000,7647.000000,,,,,,,,,,,,,,,,,,,,,,,,,,,,,,,,,,,,,,,,,,,,,,,,,,,,,,,,,,,,,,,,,,,,,,,,,,,,,,,,,,,,,,,,,,,,,,,,,,,,,,,,,,,,,,,,,,,,
1598855199.218093,65.000000,0.000000,4210.512695,4211.025879,4217.051270,4216.922852,4213.717773,4211.538574,4210.897461,4216.794922,4215.384766,4214.487305,4266.666504,4956.538574,4217.307617,4221.282227,0.000000,2.000000,,,,0.000000,0.000000,0.000000,0.000000,0.000000,0.000000,0.000000,0.000000,0.000000,0.000000,0.000000,0.000000,0.000000,0.000000,0.000000,0.000000,,,,,,,,,,,,,,,,,,,,,,,,,,,,,,,,,,,,,,,,,,,,,,,,,,,,,,,,,,,,,,,,,,,,,,,,,,,,,,,,,,,,,,,,,,,,,,,,,,,,,,,,,,,,,,,,,,,,,,,,,,,,,,,
1598855199.225986,66.000000,0.000000,4214.230957,4216.282227,4218.077148,4215.384766,4215.000000,4212.820313,4212.948730,4216.794922,4216.410156,4216.153809,4266.538574,4959.102539,4217.179688,4222.820313,0.000000,2.000000,,,,0.000000,0.000000,0.000000,0.000000,0.000000,0.000000,0.000000,0.000000,0.000000,0.000000,0.000000,0.000000,0.000000,0.000000,0.000000,0.000000,33.000000,0.000000,8213.000000,8095.000000,8208.000000,12160.000000,7663.000000,8578.000000,8140.000000,8112.000000,7646.000000,,,,,,,,,,,,,,,,,,,,,,,,,,,,,,,,,,,,,,,,,,,,,,,,,,,,,,,,,,,,,,,,,,,,,,,,,,,,,,,,,,,,,,,,,,,,,,,,,,,,,,,,,,,,,,,,,,,,
1598855199.233878,67.000000,0.000000,4217.051270,4216.538574,4217.307617,4217.051270,4211.666504,4212.692383,4213.205078,4216.922852,4216.410156,4220.000000,4268.077148,4957.692383,4218.974121,4221.666504,0.000000,2.000000,,,,0.000000,0.000000,0.000000,0.000000,0.000000,0.000000,0.000000,0.000000,0.000000,0.000000,0.000000,0.000000,0.000000,0.000000,0.000000,0.000000,,,,,,,,,,,,,,,,,,,,,,,,,,,,,,,,,,,,,,,,,,,,,,,,,,,,,,,,,,,,,,,,,,,,,,,,,,,,,,,,,,,,,,,,,,,,,,,,,,,,,,,,,,,,,,,,,,,,,,,,,,,,,,,
1598855199.241770,68.000000,0.000000,4215.769043,4210.641113,4216.922852,4217.051270,4211.666504,4211.794922,4211.922852,4216.666504,4217.051270,4220.128418,4268.461426,4955.769043,4219.230957,4220.000000,0.000000,2.000000,,,,0.000000,0.000000,0.000000,0.000000,0.000000,0.000000,0.000000,0.000000,0.000000,0.000000,0.000000,0.000000,0.000000,0.000000,0.000000,0.000000,34.000000,0.000000,8216.000000,8096.000000,8202.000000,12218.000000,7678.000000,8575.000000,8144.000000,8113.000000,7648.000000,,,,,,,,,,,,,,,,,,,,,,,,,,,,,,,,,,,,,,,,,,,,,,,,,,,,,,,,,,,,,,,,,,,,,,,,,,,,,,,,,,,,,,,,,,,,,,,,,,,,,,,,,,,,,,,,,,,,
1598855199.249662,69.000000,0.000000,4215.384766,4210.000000,4219.358887,4214.102539,4214.615234,4209.615234,4209.487305,4216.666504,4216.666504,4220.512695,4270.000000,4958.205078,4215.641113,4221.025879,0.000000,2.000000,,,,0.000000,0.000000,0.000000,0.000000,0.000000,0.000000,0.000000,0.000000,0.000000,0.000000,0.000000,0.000000,0.000000,0.000000,0.000000,0.000000,,,,,,,,,,,,,,,,,,,,,,,,,,,,,,,,,,,,,,,,,,,,,,,,,,,,,,,,,,,,,,,,,,,,,,,,,,,,,,,,,,,,,,,,,,,,,,,,,,,,,,,,,,,,,,,,,,,,,,,,,,,,,,,
1598855199.257554,70.000000,0.000000,4216.922852,4217.436035,4216.794922,4214.871582,4214.615234,4210.128418,4208.846191,4217.692383,4217.307617,4219.743652,4270.384766,4956.025879,4214.871582,4221.410156,0.000000,2.000000,,,,0.000000,0.000000,0.000000,0.000000,0.000000,0.000000,0.000000,0.000000,0.000000,0.000000,0.000000,0.000000,0.000000,0.000000,0.000000,0.000000,35.000000,0.000000,8212.000000,8097.000000,8213.000000,12228.000000,7678.000000,8580.000000,8141.000000,8113.000000,7650.000000,,,,,,,,,,,,,,,,,,,,,,,,,,,,,,,,,,,,,,,,,,,,,,,,,,,,,,,,,,,,,,,,,,,,,,,,,,,,,,,,,,,,,,,,,,,,,,,,,,,,,,,,,,,,,,,,,,,,
1598855199.265446,71.000000,0.000000,4216.282227,4217.692383,4212.692383,4219.102539,4212.692383,4210.769043,4210.128418,4217.179688,4219.487305,4219.487305,4268.974121,4953.589844,4217.436035,4222.820313,0.000000,2.000000,,,,0.000000,0.000000,0.000000,0.000000,0.000000,0.000000,0.000000,0.000000,0.000000,0.000000,0.000000,0.000000,0.000000,0.000000,0.000000,0.000000,,,,,,,,,,,,,,,,,,,,,,,,,,,,,,,,,,,,,,,,,,,,,,,,,,,,,,,,,,0.011863,0.007430,0.005537,0.005169,0.006522,0.023380,0.030082,0.038757,0.022707,0.039938,0.016486,0.020467,0.021880,0.029297,0.022782,0.009675,0.010922,0.011710,0.012029,0.019574,0.010602,0.016311,0.022813,0.017510,0.016117,0.025914,0.043633,0.011777,0.042260,0.031177,0.016129,0.009844,0.004207,0.009301,0.013191,0.000381,0.000234,0.000253,0.000209,0.000706,0.015335,0.019097,0.026564,0.016042,0.027881,0.038088,0.032006,0.022090,0.033577,0.042620,0.012429,0.010073,0.024471,0.014042,0.015853,0.023464,0.018887,0.026868,0.017003,0.019732,0.032103,0.020911,0.022012,0.036608,0.018674,0.032424,0.019729,0.016425,0.023808,0.037063
1598855199.273338,72.000000,0.000000,4215.128418,4211.410156,4214.230957,4217.820313,4210.641113,4208.589844,4212.179688,4216.025879,4218.461426,4220.769043,4268.461426,4954.743652,4218.205078,4223.589844,0.000000,2.000000,,,,0.000000,0.000000,0.000000,0.000000,0.000000,0.000000,0.000000,0.000000,0.000000,0.000000,0.000000,0.000000,0.000000,0.000000,0.000000,0.000000,36.000000,0.000000,8207.000000,8099.000000,8206.000000,12221.000000,7695.000000,8589.000000,8143.000000,8116.000000,7648.000000,,,,,,,,,,,,,,,,,,,,,,,,,,,,,,,,,,,,,,,,,,,,,,,,,,,,,,,,,,,,,,,,,,,,,,,,,,,,,,,,,,,,,,,,,,,,,,,,,,,,,,,,,,,,,,,,,,,,
1598855199.281130,73.000000,0.000000,4213.589844,4209.230957,4218.077148,4216.025879,4211.538574,4210.000000,4212.436035,4216.922852,4215.641113,4217.051270,4268.717773,4955.512695,4216.282227,4223.077148,0.000000,2.000000,,,,0.000000,0.000000,0.000000,0.000000,0.000000,0.000000,0.000000,0.000000,0.000000,0.000000,0.000000,0.000000,0.000000,0.000000,0.000000,0.000000,,,,,,,,,,,,,,,,,,,,,,,,,,,,,,,,,,,,,,,,,,,,,,,,,,,,,,,,,,,,,,,,,,,,,,,,,,,,,,,,,,,,,,,,,,,,,,,,,,,,,,,,,,,,,,,,,,,,,,,,,,,,,,,
1598855199.289022,74.000000,0.000000,4214.615234,4215.641113,4214.871582,4215.897461,4213.461426,4212.436035,4208.974121,4217.563965,4216.282227,4218.077148,4269.358887,4955.000000,4218.846191,4222.436035,0.000000,2.000000,,,,0.000000,0.000000,0.000000,0.000000,0.000000,0.000000,0.000000,0.000000,0.000000,0.000000,0.000000,0.000000,0.000000,0.000000,0.000000,0.000000,37.000000,0.000000,8210.000000,8093.000000,8211.000000,12223.000000,7684.000000,8581.000000,8141.000000,8112.000000,7649.000000,,,,,,,,,,,,,,,,,,,,,,,,,,,,,,,,,,,,,,,,,,,,,,,,,,,,,,,,,,,,,,,,,,,,,,,,,,,,,,,,,,,,,,,,,,,,,,,,,,,,,,,,,,,,,,,,,,,,
1598855199.296913,75.000000,0.000000,4217.692383,4218.717773,4214.102539,4218.077148,4212.179688,4211.410156,4208.589844,4216.282227,4217.563965,4222.179688,4269.102539,4957.563965,4219.487305,4220.256348,0.000000,2.000000,,,,0.000000,0.000000,0.000000,0.000000,0.000000,0.000000,0.000000,0.000000,0.000000,0.000000,0.000000,0.000000,0.000000,0.000000,0.000000,0.000000,,,,,,,,,,,,,,,,,,,,,,,,,,,,,,,,,,,,,,,,,,,,,,,,,,,,,,,,,,,,,,,,,,,,,,,,,,,,,,,,,,,,,,,,,,,,,,,,,,,,,,,,,,,,,,,,,,,,,,,,,,,,,,,
1598855199.304805,76.000000,0.000000,4217.179688,4213.846191,4214.102539,4217.948730,4212.563965,4210.256348,4211.410156,4216.025879,4216.410156,4221.025879,4267.179688,4956.922852,4218.333496,4220.256348,0.000000,2.000000,,,,0.000000,0.000000,0.000000,0.000000,0.000000,0.000000,0.000000,0.000000,0.000000,0.000000,0.000000,0.000000,0.000000,0.000000,0.000000,0.000000,38.000000,0.000000,8207.000000,8101.000000,8203.000000,12221.000000,7694.000000,8578.000000,8142.000000,8112.000000,7650.000000,,,,,,,,,,,,,,,,,,,,,,,,,,,,,,,,,,,,,,,,,,,,,,,,,,,,,,,,,,,,,,,,,,,,,,,,,,,,,,,,,,,,,,,,,,,,,,,,,,,,,,,,,,,,,,,,,,,,
1598855199.312697,77.000000,0.000000,4215.641113,4211.153809,4212.179688,4215.769043,4217.179688,4212.692383,4212.051270,4216.922852,4216.666504,4220.256348,4265.769043,4955.000000,4216.922852,4222.436035,0.000000,2.000000,,,,0.000000,0.000000,0.000000,0.000000,0.000000,0.000000,0.000000,0.000000,0.000000,0.000000,0.000000,0.000000,0.000000,0.000000,0.000000,0.000000,,,,,,,,,,,,,,,,,,,,,,,,,,,,,,,,,,,,,,,,,,,,,,,,,,,,,,,,,,,,,,,,,,,,,,,,,,,,,,,,,,,,,,,,,,,,,,,,,,,,,,,,,,,,,,,,,,,,,,,,,,,,,,,
1598855199.320588,78.000000,0.000000,4215.769043,4212.051270,4215.128418,4213.589844,4215.897461,4212.820313,4210.897461,4216.922852,4217.436035,4220.641113,4269.230957,4957.820313,4217.307617,4221.922852,0.000000,2.000000,,,,0.000000,0.000000,0.000000,0.000000,0.000000,0.000000,0.000000,0.000000,0.000000,0.000000,0.000000,0.000000,0.000000,0.000000,0.000000,0.000000,39.000000,0.000000,8213.000000,8101.000000,8201.000000,12232.000000,7661.000000,8561.000000,8144.000000,8110.000000,7646.000000,,,,,,,,,,,,,,,,,,,,,,,,,,,,,,,,,,,,,,,,,,,,,,,,,,,,,,,,,,,,,,,,,,,,,,,,,,,,,,,,,,,,,,,,,,,,,,,,,,,,,,,,,,,,,,,,,,,,
1598855199.328480,79.000000,0.000000,4215.641113,4213.717773,4217.436035,4214.871582,4210.641113,4212.820313,4211.410156,4216.666504,4215.897461,4219.871582,4269.743652,4955.769043,4216.538574,4219.487305,0.000000,2.000000,,,,0.000000,0.000000,0.000000,0.000000,0.000000,0.000000,0.000000,0.000000,0.000000,0.000000,0.000000,0.000000,0.000000,0.000000,0.000000,0.000000,,,,,,,,,,,,,,,,,,,,,,,,,,,,,,,,,,,,,,,,,,,,,,,,,,,,,,,,,,,,,,,,,,,,,,,,,,,,,,,,,,,,,,,,,,,,,,,,,,,,,,,,,,,,,,,,,,,,,,,,,,,,,,,
1598855199.336372,80.000000,0.000000,4215.512695,4215.641113,4213.077148,4214.230957,4211.282227,4214.230957,4211.025879,4216.794922,4215.128418,4222.563965,4266.153809,4949.871582,4217.307617,4221.410156,0.000000,2.000000,,,,0.000000,0.000000,0.000000,0.000000,0.000000,0.000000,0.000000,0.000000,0.000000,0.000000,0.000000,0.000000,0.000000,0.000000,0.000000,0.000000,40.000000,0.000000,8212.000000,8097.000000,8204.000000,12215.000000,7673.000000,8589.000000,8143.000000,8114.000000,7649.000000,,,,,,,,,,,,,,,,,,,,,,,,,,,,,,,,,,,,,,,,,,,,,,,,,,,,,,,,,,,,,,,,,,,,,,,,,,,,,,,,,,,,,,,,,,,,,,,,,,,,,,,,,,,,,,,,,,,,
1598855199.344263,81.000000,0.000000,4216.410156,4215.897461,4213.846191,4214.102539,4214.871582,4213.333496,4211.025879,4216.922852,4215.000000,4223.461426,4266.410156,4950.641113,4217.307617,4221.410156,0.000000,2.000000,,,,0.000000,0.000000,0.000000,0.000000,0.000000,0.000000,0.000000,0.000000,0.000000,0.000000,0.000000,0.000000,0.000000,0.000000,0.000000,0.000000,,,,,,,,,,,,,,,,,,,,,,,,,,,,,,,,,,,,,,,,,,,,,,,,,,,,,,,,,,,,,,,,,,,,,,,,,,,,,,,,,,,,,,,,,,,,,,,,,,,,,,,,,,,,,,,,,,,,,,,,,,,,,,,
1598855199.352155,82.000000,0.000000,4216.794922,4214.487305,4217.820313,4215.256348,4214.871582,4212.307617,4211.410156,4216.794922,4215.000000,4217.692383,4270.641113,4955.000000,4216.410156,4221.282227,0.000000,2.000000,,,,0.000000,0.000000,0.000000,0.000000,0.000000,0.000000,0.000000,0.000000,0.000000,0.000000,0.000000,0.000000,0.000000,0.000000,0.000000,0.000000,41.000000,0.000000,8208.000000,8099.000000,8203.000000,12226.000000,7664.000000,8577.000000,8145.000000,8093.000000,7648.000000,,,,,,,,,,,,,,,,,,,,,,,,,,,,,,,,,,,,,,,,,,,,,,,,,,,,,,,,,,,,,,,,,,,,,,,,,,,,,,,,,,,,,,,,,,,,,,,,,,,,,,,,,,,,,,,,,,,,
1598855199.359946,83.000000,0.000000,4215.641113,4212.692383,4216.282227,4215.641113,4212.820313,4212.948730,4210.384766,4216.794922,4214.871582,4217.051270,4269.102539,4953.205078,4215.000000,4221.153809,0.000000,2.000000,,,,0.000000,0.000000,0.000000,0.000000,0.000000,0.000000,0.000000,0.000000,0.000000,0.000000,0.000000,0.000000,0.000000,0.000000,0.000000,0.000000,,,,,,,,,,,,,,,,,,,,,,,,,,,,,,,,,,,,,,,,,,,,,,,,,,,,,,,,,,,,,,,,,,,,,,,,,,,,,,,,,,,,,,,,,,,,,,,,,,,,,,,,,,,,,,,,,,,,,,,,,,,,,,,
1598855199.367837,84.000000,0.000000,4215.128418,4212.692383,4212.948730,4217.692383,4211.794922,4211.538574,4209.871582,4216.794922,4215.256348,4220.897461,4267.179688,4952.948730,4216.410156,4218.974121,0.000000,2.000000,,,,0.000000,0.000000,0.000000,0.000000,0.000000,0.000000,0.000000,0.000000,0.000000,0.000000,0.000000,0.000000,0.000000,0.000000,0.000000,0.000000,42.000000,0.000000,8210.000000,8094.000000,8205.000000,12222.000000,7677.000000,8581.000000,8145.000000,8112.000000,7650.000000,,,,,,,,,,,,,,,,,,,,,,,,,,,,,,,,,,,,,,,,,,,,,,,,,,,,,,,,,,,,,,,,,,,,,,,,,,,,,,,,,,,,,,,,,,,,,,,,,,,,,,,,,,,,,,,,,,,,
1598855199.375727,85.000000,0.000000,4215.384766,4215.641113,4211.538574,4218.461426,4212.307617,4211.666504,4212.948730,4216.794922,4216.282227,4220.256348,4268.717773,4953.974121,4218.077148,4220.384766,0.000000,2.000000,,,,0.000000,0.000000,0.000000,0.000000,0.000000,0.000000,0.000000,0.000000,0.000000,0.000000,0.000000,0.000000,0.000000,0.000000,0.000000,0.000000,,,,,,,,,,,,,,,,,,,,,,,,,,,,,,,,,,,,,,,,,,,,,,,,,,,,,,,,,,,,,,,,,,,,,,,,,,,,,,,,,,,,,,,,,,,,,,,,,,,,,,,,,,,,,,,,,,,,,,,,,,,,,,,
1598855199.383618,86.000000,0.000000,4215.641113,4215.384766,4214.230957,4215.384766,4211.666504,4213.333496,4212.820313,4216.794922,4217.307617,4218.589844,4270.000000,4955.897461,4215.000000,4226.794922,0.000000,2.000000,,,,0.000000,0.000000,0.000000,0.000000,0.000000,0.000000,0.000000,0.000000,0.000000,0.000000,0.000000,0.000000,0.000000,0.000000,0.000000,0.000000,43.000000,0.000000,8213.000000,8095.000000,8207.000000,12224.000000,7665.000000,8574.000000,8144.000000,8117.000000,7648.000000,,,,,,,,,,,,,,,,,,,,,,,,,,,,,,,,,,,,,,,,,,,,,,,,,,,,,,,,,,,,,,,,,,,,,,,,,,,,,,,,,,,,,,,,,,,,,,,,,,,,,,,,,,,,,,,,,,,,
1598855199.391509,87.000000,0.000000,4215.512695,4214.230957,4217.436035,4214.871582,4211.922852,4211.922852,4211.282227,4216.794922,4216.922852,4220.769043,4269.230957,4955.000000,4213.717773,4226.794922,0.000000,2.000000,,,,0.000000,0.000000,0.000000,0.000000,0.000000,0.000000,0.000000,0.000000,0.000000,0.000000,0.000000,0.000000,0.000000,0.000000,0.000000,0.000000,,,,,,,,,,,,,,,,,,,,,,,,,,,,,,,,,,,,,,,,,,,,,,,,,,,,,,,,,,0.014318,0.006857,0.005740,0.005322,0.006851,0.021404,0.028868,0.037109,0.019733,0.034557,0.013405,0.023923,0.020183,0.033447,0.019488,0.009572,0.011204,0.012996,0.010847,0.019249,0.008205,0.013508,0.022017,0.015364,0.016132,0.026268,0.043866,0.008999,0.039790,0.031097,0.013290,0.010950,0.005115,0.010886,0.012015,0.000722,0.000468,0.000439,0.000362,0.001124,0.014318,0.020174,0.024893,0.014304,0.025125,0.034491,0.030870,0.027183,0.035076,0.037432,0.013219,0.009040,0.023772,0.013515,0.018466,0.022608,0.020449,0.025725,0.013341,0.019807,0.026921,0.020220,0.023239,0.031654,0.016779,0.035936,0.021231,0.014992,0.025524,0.034087
1598855199.399399,88.000000,0.000000,4215.384766,4216.025879,4219.230957,4218.974121,4215.256348,4211.666504,4210.897461,4216.794922,4215.512695,4222.179688,4269.743652,4955.000000,4215.769043,4222.179688,0.000000,2.000000,,,,0.000000,0.000000,0.000000,0.000000,0.000000,0.000000,0.000000,0.000000,0.000000,0.000000,0.000000,0.000000,0.000000,0.000000,0.000000,0.000000,44.000000,0.000000,8211.000000,8093.000000,8209.000000,12224.000000,7686.000000,8569.000000,8141.000000,8114.000000,7647.000000,,,,,,,,,,,,,,,,,,,,,,,,,,,,,,,,,,,,,,,,,,,,,,,,,,,,,,,,,,,,,,,,,,,,,,,,,,,,,,,,,,,,,,,,,,,,,,,,,,,,,,,,,,,,,,,,,,,,
1598855199.407290,89.000000,0.000000,4217.307617,4214.615234,4215.256348,4217.436035,4215.384766,4215.000000,4210.769043,4216.794922,4216.153809,4221.153809,4270.256348,4954.871582,4216.666504,4221.538574,0.000000,2.000000,,,,0.000000,0.000000,0.000000,0.000000,0.000000,0.000000,0.000000,0.000000,0.000000,0.000000,0.000000,0.000000,0.000000,0.000000,0.000000,0.000000,,,,,,,,,,,,,,,,,,,,,,,,,,,,,,,,,,,,,,,,,,,,,,,,,,,,,,,,,,,,,,,,,,,,,,,,,,,,,,,,,,,,,,,,,,,,,,,,,,,,,,,,,,,,,,,,,,,,,,,,,,,,,,,
1598855199.415181,90.000000,0.000000,4217.051270,4210.769043,4211.666504,4213.846191,4211.794922,4215.384766,4211.153809,4216.794922,4216.666504,4221.153809,4270.000000,4955.512695,4215.769043,4221.282227,0.000000,2.000000,,,,0.000000,0.000000,0.000000,0.000000,0.000000,0.000000,0.000000,0.000000,0.000000,0.000000,0.000000,0.000000,0.000000,0.000000,0.000000,0.000000,45.000000,0.000000,8210.000000,8091.000000,8208.000000,12230.000000,7673.000000,8572.000000,8147.000000,8110.000000,7648.000000,,,,,,,,,,,,,,,,,,,,,,,,,,,,,,,,,,,,,,,,,,,,,,,,,,,,,,,,,,,,,,,,,,,,,,,,,,,,,,,,,,,,,,,,,,,,,,,,,,,,,,,,,,,,,,,,,,,,
1598855199.422972,91.000000,0.000000,4215.128418,4210.128418,4213.077148,4213.717773,4211.153809,4211.666504,4210.641113,4216.794922,4216.153809,4222.179688,4268.717773,4955.256348,4215.897461,4219.102539,0.000000,2.000000,,,,0.000000,0.000000,0.000000,0.000000,0.000000,0.000000,0.000000,0.000000,0.000000,0.000000,0.000000,0.000000,0.000000,0.000000,0.000000,0.000000,,,,,,,,,,,,,,,,,,,,,,,,,,,,,,,,,,,,,,,,,,,,,,,,,,,,,,,,,,,,,,,,,,,,,,,,,,,,,,,,,,,,,,,,,,,,,,,,,,,,,,,,,,,,,,,,,,,,,,,,,,,,,,,
1598855199.430863,92.000000,0.000000,4217.051270,4212.820313,4219.743652,4215.256348,4214.230957,4213.846191,4210.641113,4216.794922,4215.897461,4221.410156,4267.436035,4955.512695,4215.769043,4221.282227,0.000000,2.000000,,,,0.000000,0.000000,0.000000,0.000000,0.000000,0.000000,0.000000,0.000000,0.000000,0.000000,0.000000,0.000000,0.000000,0.000000,0.000000,0.000000,46.000000,0.000000,8208.000000,8095.000000,8201.000000,12229.000000,7652.000000,8573.000000,8139.000000,8114.000000,7648.000000,,,,,,,,,,,,,,,,,,,,,,,,,,,,,,,,,,,,,,,,,,,,,,,,,,,,,,,,,,,,,,,,,,,,,,,,,,,,,,,,,,,,,,,,,,,,,,,,,,,,,,,,,,,,,,,,,,,,
1598855199.438754,93.000000,0.000000,4216.922852,4211.153809,4217.820313,4214.102539,4212.307617,4215.897461,4210.897461,4216.794922,4218.333496,4221.794922,4268.974121,4955.128418,4218.589844,4223.461426,0.000000,2.000000,,,,0.000000,0.000000,0.000000,0.000000,0.000000,0.000000,0.000000,0.000000,0.000000,0.000000,0.000000,0.000000,0.000000,0.000000,0.000000,0.000000,,,,,,,,,,,,,,,,,,,,,,,,,,,,,,,,,,,,,,,,,,,,,,,,,,,,,,,,,,,,,,,,,,,,,,,,,,,,,,,,,,,,,,,,,,,,,,,,,,,,,,,,,,,,,,,,,,,,,,,,,,,,,,,
1598855199.446645,94.000000,0.000000,4214.102539,4209.358887,4212.436035,4215.769043,4209.487305,4212.820313,4210.897461,4216.794922,4218.077148,4221.666504,4270.256348,4955.512695,4216.794922,4220.769043,0.000000,2.000000,,,,0.000000,0.000000,0.000000,0.000000,0.000000,0.000000,0.000000,0.000000,0.000000,0.000000,0.000000,0.000000,0.000000,0.000000,0.000000,0.000000,47.000000,0.000000,8210.000000,8095.000000,8213.000000,12219.000000,7682.000000,8576.000000,8146.000000,8115.000000,7649.000000,,,,,,,,,,,,,,,,,,,,,,,,,,,,,,,,,,,,,,,,,,,,,,,,,,,,,,,,,,,,,,,,,,,,,,,,,,,,,,,,,,,,,,,,,,,,,,,,,,,,,,,,,,,,,,,,,,,,
1598855199.454536,95.000000,0.000000,4213.974121,4212.948730,4213.333496,4215.641113,4212.692383,4210.641113,4211.666504,4216.794922,4212.820313,4219.743652,4268.589844,4955.897461,4215.000000,4220.000000,0.000000,2.000000,,,,0.000000,0.000000,0.000000,0.000000,0.000000,0.000000,0.000000,0.000000,0.000000,0.000000,0.000000,0.000000,0.000000,0.000000,0.000000,0.000000,,,,,,,,,,,,,,,,,,,,,,,,,,,,,,,,,,,,,,,,,,,,,,,,,,,,,,,,,,,,,,,,,,,,,,,,,,,,,,,,,,,,,,,,,,,,,,,,,,,,,,,,,,,,,,,,,,,,,,,,,,,,,,,
1598855199.462426,96.000000,0.000000,4215.769043,4218.461426,4216.922852,4215.128418,4216.410156,4214.230957,4213.974121,4216.794922,4213.333496,4217.948730,4267.307617,4953.461426,4218.461426,4224.102539,0.000000,2.000000,,,,0.000000,0.000000,0.000000,0.000000,0.000000,0.000000,0.000000,0.000000,0.000000,0.000000,0.000000,0.000000,0.000000,0.000000,0.000000,0.000000,48.000000,0.000000,8208.000000,8097.000000,8206.000000,12226.000000,7708.000000,8573.000000,8143.000000,8110.000000,7648.000000,,,,,,,,,,,,,,,,,,,,,,,,,,,,,,,,,,,,,,,,,,,,,,,,,,,,,,,,,,,,,,,,,,,,,,,,,,,,,,,,,,,,,,,,,,,,,,,,,,,,,,,,,,,,,,,,,,,,
1598855199.470317,97.000000,0.000000,4215.512695,4214.871582,4213.333496,4216.153809,4213.077148,4215.769043,4211.922852,4216.794922,4218.461426,4219.230957,4271.153809,4952.436035,4220.128418,4227.692383,0.000000,2.000000,,,,0.000000,0.000000,0.000000,0.000000,0.000000,0.000000,0.000000,0.000000,0.000000,0.000000,0.000000,0.000000,0.000000,0.000000,0.000000,0.000000,,,,,,,,,,,,,,,,,,,,,,,,,,,,,,,,,,,,,,,,,,,,,,,,,,,,,,,,,,,,,,,,,,,,,,,,,,,,,,,,,,,,,,,,,,,,,,,,,,,,,,,,,,,,,,,,,,,,,,,,,,,,,,,
1598855199.478208,98.000000,0.000000,4213.717773,4209.358887,4211.025879,4218.589844,4211.282227,4214.743652,4208.717773,4216.794922,4215.897461,4219.871582,4273.077148,4955.769043,4213.205078,4223.461426,0.000000,2.000000,,,,0.000000,0.000000,0.000000,0.000000,0.000000,0.000000,0.000000,0.000000,0.000000,0.000000,0.000000,0.000000,0.000000,0.000000,0.000000,0.000000,49.000000,0.000000,8211.000000,8098.000000,8203.000000,12222.000000,7689.000000,8580.000000,8140.000000,8118.000000,7649.000000,,,,,,,,,,,,,,,,,,,,,,,,,,,,,,,,,,,,,,,,,,,,,,,,,,,,,,,,,,,,,,,,,,,,,,,,,,,,,,,,,,,,,,,,,,,,,,,,,,,,,,,,,,,,,,,,,,,,
1598855199.486000,99.000000,0.000000,4212.692383,4213.077148,4213.333496,4218.589844,4213.589844,4216.282227,4210.512695,4216.794922,4212.948730,4218.589844,4269.487305,4956.538574,4213.461426,4220.512695,0.000000,2.000000,,,,0.000000,0.000000,0.000000,0.000000,0.000000,0.000000,0.000000,0.000000,0.000000,0.000000,0.000000,0.000000,0.000000,0.000000,0.000000,0.000000,,,,,,,,,,,,,,,,,,,,,,,,,,,,,,,,,,,,,,,,,,,,,,,,,,,,,,,,,,,,,,,,,,,,,,,,,,,,,,,,,,,,,,,,,,,,,,,,,,,,,,,,,,,,,,,,,,,,,,,,,,,,,,,
1598855199.493891,100.000000,0.000000,4213.846191,4215.384766,4214.487305,4217.179688,4213.333496,4217.051270,4212.692383,4216.794922,4216.410156,4218.077148,4267.307617,4951.538574,4219.871582,4221.153809,0.000000,2.000000,,,,0.000000,0.000000,0.000000,0.000000,0.000000,0.000000,0.000000,0.000000,0.000000,0.000000,0.000000,0.000000,0.000000,0.000000,0.000000,0.000000,50.000000,0.000000,8209.000000,8094.000000,8208.000000,12220.000000,7670.000000,8563.000000,8146.000000,8113.000000,7651.000000,,,,,,,,,,,,,,,,,,,,,,,,,,,,,,,,,,,,,,,,,,,,,,,,,,,,,,,,,,,,,,,,,,,,,,,,,,,,,,,,,,,,,,,,,,,,,,,,,,,,,,,,,,,,,,,,,,,,
1598855199.501783,101.000000,0.000000,4216.410156,4211.922852,4214.230957,4217.051270,4211.538574,4213.974121,4210.000000,4216.794922,4217.563965,4219.230957,4270.897461,4951.153809,4221.538574,4222.307617,0.000000,2.000000,,,,0.000000,0.000000,0.000000,0.000000,0.000000,0.000000,0.000000,0.000000,0.000000,0.000000,0.000000,0.000000,0.000000,0.000000,0.000000,0.000000,,,,,,,,,,,,,,,,,,,,,,,,,,,,,,,,,,,,,,,,,,,,,,,,,,,,,,,,,,,,,,,,,,,,,,,,,,,,,,,,,,,,,,,,,,,,,,,,,,,,,,,,,,,,,,,,,,,,,,,,,,,,,,,
1598855199.509674,102.000000,0.000000,4216.282227,4213.461426,4214.487305,4217.436035,4212.436035,4214.358887,4209.102539,4216.794922,4215.512695,4220.000000,4271.153809,4955.000000,4216.153809,4220.769043,0.000000,2.000000,,,,0.000000,0.000000,0.000000,0.000000,0.000000,0.000000,0.000000,0.000000,0.000000,0.000000,0.000000,0.000000,0.000000,0.000000,0.000000,0.000000,51.000000,0.000000,8210.000000,8094.000000,8206.000000,12231.000000,7669.000000,8577.000000,8141.000000,8115.000000,7646.000000,,,,,,,,,,,,,,,,,,,,,,,,,,,,,,,,,,,,,,,,,,,,,,,,,,,,,,,,,,,,,,,,,,,,,,,,,,,,,,,,,,,,,,,,,,,,,,,,,,,,,,,,,,,,,,,,,,,,
1598855199.517566,103.000000,0.000000,4215.384766,4215.769043,4214.743652,4217.179688,4212.820313,4215.384766,4211.538574,4216.794922,4216.025879,4219.615234,4268.589844,4955.769043,4212.307617,4221.153809,0.000000,2.000000,,,,0.000000,0.000000,0.000000,0.000000,0.000000,0.000000,0.000000,0.000000,0.000000,0.000000,0.000000,0.000000,0.000000,0.000000,0.000000,0.000000,,,,,,,,,,,,,,,,,,,,,,,,,,,,,,,,,,,,,,,,,,,,,,,,,,,,,,,,,,0.016146,0.006705,0.005797,0.005618,0.007189,0.019436,0.027124,0.037283,0.017577,0.030613,0.010874,0.027529,0.017477,0.037205,0.017258,0.010068,0.011918,0.013829,0.010163,0.018945,0.008567,0.011515,0.019439,0.013835,0.016137,0.028184,0.042753,0.007189,0.036876,0.031328,0.010457,0.011612,0.006126,0.012455,0.010738,0.001217,0.000798,0.000689,0.000544,0.001514,0.013013,0.021166,0.021304,0.014036,0.022341,0.030947,0.028002,0.033793,0.034345,0.032056,0.013810,0.008951,0.021577,0.012470,0.021042,0.021635,0.020906,0.024139,0.011062,0.019761,0.021644,0.019865,0.023071,0.026731,0.016341,0.038332,0.022745,0.013863,0.026218,0.030729
1598855199.525457,104.000000,0.000000,4217.051270,4211.794922,4214.230957,4215.769043,4212.307617,4213.077148,4212.307617,4216.794922,4216.282227,4220.512695,4268.589844,4952.563965,4216.794922,4221.666504,0.000000,2.000000,,,,0.000000,0.000000,0.000000,0.000000,0.000000,0.000000,0.000000,0.000000,0.000000,0.000000,0.000000,0.000000,0.000000,0.000000,0.000000,0.000000,52.000000,0.000000,8207.000000,8101.000000,8201.000000,12220.000000,7680.000000,8572.000000,8142.000000,8115.000000,7650.000000,,,,,,,,,,,,,,,,,,,,,,,,,,,,,,,,,,,,,,,,,,,,,,,,,,,,,,,,,,,,,,,,,,,,,,,,,,,,,,,,,,,,,,,,,,,,,,,,,,,,,,,,,,,,,,,,,,,,
1598855199.533348,105.000000,0.000000,4216.794922,4210.256348,4215.769043,4215.384766,4212.820313,4211.282227,4212.051270,4216.794922,4217.307617,4220.512695,4269.358887,4956.538574,4220.641113,4223.717773,0.000000,2.000000,,,,0.000000,0.000000,0.000000,0.000000,0.000000,0.000000,0.000000,0.000000,0.000000,0.000000,0.000000,0.000000,0.000000,0.000000,0.000000,0.000000,,,,,,,,,,,,,,,,,,,,,,,,,,,,,,,,,,,,,,,,,,,,,,,,,,,,,,,,,,,,,,,,,,,,,,,,,,,,,,,,,,,,,,,,,,,,,,,,,,,,,,,,,,,,,,,,,,,,,,,,,,,,,,,
1598855199.541240,106.000000,0.000000,4216.410156,4214.871582,4215.897461,4216.794922,4214.230957,4214.102539,4213.846191,4216.794922,4217.179688,4221.794922,4268.974121,4958.461426,4216.538574,4225.512695,0.000000,2.000000,,,,0.000000,0.000000,0.000000,0.000000,0.000000,0.000000,0.000000,0.000000,0.000000,0.000000,0.000000,0.000000,0.000000,0.000000,0.000000,0.000000,53.000000,0.000000,8210.000000,8093.000000,8207.000000,12222.000000,7699.000000,8579.000000,8139.000000,8113.000000,7646.000000,,,,,,,,,,,,,,,,,,,,,,,,,,,,,,,,,,,,,,,,,,,,,,,,,,,,,,,,,,,,,,,,,,,,,,,,,,,,,,,,,,,,,,,,,,,,,,,,,,,,,,,,,,,,,,,,,,,,
1598855199.549131,107.000000,0.000000,4219.230957,4215.641113,4217.179688,4217.692383,4214.615234,4215.769043,4212.563965,4216.794922,4214.615234,4221.410156,4270.384766,4954.743652,4213.461426,4221.922852,0.000000,2.000000,,,,0.000000,0.000000,0.000000,0.000000,0.000000,0.000000,0.000000,0.000000,0.000000,0.000000,0.000000,0.000000,0.000000,0.000000,0.000000,0.000000,,,,,,,,,,,,,,,,,,,,,,,,,,,,,,,,,,,,,,,,,,,,,,,,,,,,,,,,,,,,,,,,,,,,,,,,,,,,,,,,,,,,,,,,,,,,,,,,,,,,,,,,,,,,,,,,,,,,,,,,,,,,,,,
1598855199.557023,108.000000,0.000000,4220.000000,4215.128418,4217.179688,4215.128418,4213.333496,4214.230957,4209.487305,4216.794922,4215.384766,4220.769043,4271.538574,4954.102539,4217.692383,4220.256348,0.000000,2.000000,,,,0.000000,0.000000,0.000000,0.000000,0.000000,0.000000,0.000000,0.000000,0.000000,0.000000,0.000000,0.000000,0.000000,0.000000,0.000000,0.000000,54.000000,0.000000,8208.000000,8094.000000,8205.000000,12223.000000,7672.000000,8584.000000,8138.000000,8115.000000,7648.000000,,,,,,,,,,,,,,,,,,,,,,,,,,,,,,,,,,,,,,,,,,,,,,,,,,,,,,,,,,,,,,,,,,,,,,,,,,,,,,,,,,,,,,,,,,,,,,,,,,,,,,,,,,,,,,,,,,,,
1598855199.564813,109.000000,0.000000,4215.641113,4215.512695,4214.871582,4213.589844,4212.436035,4211.922852,4208.974121,4216.794922,4218.333496,4222.436035,4269.102539,4958.333496,4220.512695,4226.538574,0.000000,2.000000,,,,0.000000,0.000000,0.000000,0.000000,0.000000,0.000000,0.000000,0.000000,0.000000,0.000000,0.000000,0.000000,0.000000,0.000000,0.000000,0.000000,,,,,,,,,,,,,,,,,,,,,,,,,,,,,,,,,,,,,,,,,,,,,,,,,,,,,,,,,,,,,,,,,,,,,,,,,,,,,,,,,,,,,,,,,,,,,,,,,,,,,,,,,,,,,,,,,,,,,,,,,,,,,,,
1598855199.572704,110.000000,0.000000,4214.743652,4214.487305,4213.717773,4215.256348,4211.282227,4213.461426,4209.871582,4216.794922,4217.563965,4222.307617,4267.051270,4956.282227,4218.974121,4227.563965,0.000000,2.000000,,,,0.000000,0.000000,0.000000,0.000000,0.000000,0.000000,0.000000,0.000000,0.000000,0.000000,0.000000,0.000000,0.000000,0.000000,0.000000,0.000000,55.000000,0.000000,8208.000000,8097.000000,8204.000000,12218.000000,7653.000000,8561.000000,8142.000000,8117.000000,7649.000000,,,,,,,,,,,,,,,,,,,,,,,,,,,,,,,,,,,,,,,,,,,,,,,,,,,,,,,,,,,,,,,,,,,,,,,,,,,,,,,,,,,,,,,,,,,,,,,,,,,,,,,,,,,,,,,,,,,,
1598855199.580595,111.000000,0.000000,4216.794922,4215.000000,4216.538574,4217.563965,4210.384766,4215.641113,4210.128418,4216.794922,4216.025879,4220.256348,4267.307617,4954.230957,4214.871582,4222.307617,0.000000,2.000000,,,,0.000000,0.000000,0.000000,0.000000,0.000000,0.000000,0.000000,0.000000,0.000000,0.000000,0.000000,0.000000,0.000000,0.000000,0.000000,0.000000,,,,,,,,,,,,,,,,,,,,,,,,,,,,,,,,,,,,,,,,,,,,,,,,,,,,,,,,,,,,,,,,,,,,,,,,,,,,,,,,,,,,,,,,,,,,,,,,,,,,,,,,,,,,,,,,,,,,,,,,,,,,,,,
1598855199.588486,112.000000,0.000000,4215.256348,4215.512695,4213.974121,4214.743652,4210.384766,4210.384766,4210.256348,4216.794922,4217.692383,4220.000000,4267.820313,4955.128418,4215.512695,4221.282227,0.000000,2.000000,,,,0.000000,0.000000,0.000000,0.000000,0.000000,0.000000,0.000000,0.000000,0.000000,0.000000,0.000000,0.000000,0.000000,0.000000,0.000000,0.000000,56.000000,0.000000,8211.000000,8087.000000,8203.000000,12228.000000,7674.000000,8568.000000,8147.000000,8115.000000,7649.000000,,,,,,,,,,,,,,,,,,,,,,,,,,,,,,,,,,,,,,,,,,,,,,,,,,,,,,,,,,,,,,,,,,,,,,,,,,,,,,,,,,,,,,,,,,,,,,,,,,,,,,,,,,,,,,,,,,,,
1598855199.596376,113.000000,0.000000,4214.871582,4213.205078,4211.025879,4214.358887,4212.307617,4209.743652,4211.538574,4216.794922,4217.948730,4217.307617,4268.333496,4954.615234,4217.179688,4221.410156,0.000000,2.000000,,,,0.000000,0.000000,0.000000,0.000000,0.000000,0.000000,0.000000,0.000000,0.000000,0.000000,0.000000,0.000000,0.000000,0.000000,0.000000,0.000000,,,,,,,,,,,,,,,,,,,,,,,,,,,,,,,,,,,,,,,,,,,,,,,,,,,,,,,,,,,,,,,,,,,,,,,,,,,,,,,,,,,,,,,,,,,,,,,,,,,,,,,,,,,,,,,,,,,,,,,,,,,,,,,
1598855199.604267,114.000000,0.000000,4216.025879,4210.641113,4212.820313,4215.512695,4212.436035,4215.769043,4212.692383,4216.794922,4215.769043,4215.512695,4270.769043,4954.615234,4216.410156,4221.282227,0.000000,2.000000,,,,0.000000,0.000000,0.000000,0.000000,0.000000,0.000000,0.000000,0.000000,0.000000,0.000000,0.000000,0.000000,0.000000,0.000000,0.000000,0.000000,57.000000,0.000000,8207.000000,8103.000000,8206.000000,12220.000000,7680.000000,8581.000000,8138.000000,8124.000000,7649.000000,,,,,,,,,,,,,,,,,,,,,,,,,,,,,,,,,,,,,,,,,,,,,,,,,,,,,,,,,,,,,,,,,,,,,,,,,,,,,,,,,,,,,,,,,,,,,,,,,,,,,,,,,,,,,,,,,,,,
1598855199.612158,115.000000,0.000000,4214.102539,4212.436035,4214.743652,4215.512695,4211.538574,4216.153809,4212.051270,4216.794922,4214.358887,4219.487305,4271.153809,4955.641113,4213.589844,4222.948730,0.000000,2.000000,,,,0.000000,0.000000,0.000000,0.000000,0.000000,0.000000,0.000000,0.000000,0.000000,0.000000,0.000000,0.000000,0.000000,0.000000,0.000000,0.000000,,,,,,,,,,,,,,,,,,,,,,,,,,,,,,,,,,,,,,,,,,,,,,,,,,,,,,,,,,,,,,,,,,,,,,,,,,,,,,,,,,,,,,,,,,,,,,,,,,,,,,,,,,,,,,,,,,,,,,,,,,,,,,,
1598855199.620048,116.000000,0.000000,4213.846191,4212.051270,4213.077148,4215.384766,4211.794922,4212.820313,4209.871582,4216.794922,4215.769043,4221.794922,4271.282227,4957.179688,4215.769043,4222.563965,0.000000,2.000000,,,,0.000000,0.000000,0.000000,0.000000,0.000000,0.000000,0.000000,0.000000,0.000000,0.000000,0.000000,0.000000,0.000000,0.000000,0.000000,0.000000,58.000000,0.000000,8209.000000,8099.000000,8198.000000,12218.000000,7685.000000,8579.000000,8141.000000,8111.000000,7649.000000,,,,,,,,,,,,,,,,,,,,,,,,,,,,,,,,,,,,,,,,,,,,,,,,,,,,,,,,,,,,,,,,,,,,,,,,,,,,,,,,,,,,,,,,,,,,,,,,,,,,,,,,,,,,,,,,,,,,
1598855199.627833,117.000000,0.000000,4215.897461,4211.922852,4213.461426,4218.205078,4213.589844,4213.589844,4210.769043,4216.794922,4217.179688,4215.769043,4270.384766,4956.666504,4215.641113,4219.102539,0.000000,2.000000,,,,0.000000,0.000000,0.000000,0.000000,0.000000,0.000000,0.000000,0.000000,0.000000,0.000000,0.000000,0.000000,0.000000,0.000000,0.000000,0.000000,,,,,,,,,,,,,,,,,,,,,,,,,,,,,,,,,,,,,,,,,,,,,,,,,,,,,,,,,,,,,,,,,,,,,,,,,,,,,,,,,,,,,,,,,,,,,,,,,,,,,,,,,,,,,,,,,,,,,,,,,,,,,,,
1598855199.635718,118.000000,0.000000,4216.410156,4211.538574,4214.743652,4217.692383,4214.358887,4212.307617,4212.436035,4216.794922,4216.153809,4215.512695,4270.769043,4955.512695,4214.358887,4221.794922,0.000000,2.000000,,,,0.000000,0.000000,0.000000,0.000000,0.000000,0.000000,0.000000,0.000000,0.000000,0.000000,0.000000,0.000000,0.000000,0.000000,0.000000,0.000000,59.000000,0.000000,8210.000000,8095.000000,8206.000000,12220.000000,7662.000000,8585.000000,8143.000000,8116.000000,7651.000000,,,,,,,,,,,,,,,,,,,,,,,,,,,,,,,,,,,,,,,,,,,,,,,,,,,,,,,,,,,,,,,,,,,,,,,,,,,,,,,,,,,,,,,,,,,,,,,,,,,,,,,,,,,,,,,,,,,,
1598855199.643511,119.000000,0.000000,4216.282227,4211.153809,4213.717773,4215.897461,4213.589844,4211.410156,4211.666504,4216.794922,4216.538574,4221.025879,4270.384766,4954.615234,4217.051270,4224.487305,0.000000,2.000000,,,,0.000000,0.000000,0.000000,0.000000,0.000000,0.000000,0.000000,0.000000,0.000000,0.000000,0.000000,0.000000,0.000000,0.000000,0.000000,0.000000,,,,,,,,,,,,,,,,,,,,,,,,,,,,,,,,,,,,,,,,,,,,,,,,,,,,,,,,,,0.017009,0.006927,0.005974,0.006331,0.007614,0.019815,0.025758,0.039039,0.017122,0.029625,0.009354,0.030613,0.014610,0.039634,0.016722,0.010628,0.012521,0.014181,0.010025,0.018792,0.010805,0.010922,0.016010,0.013314,0.016344,0.032574,0.040065,0.006675,0.033836,0.030870,0.008128,0.011907,0.007028,0.013696,0.009563,0.001737,0.001131,0.000928,0.000699,0.001771,0.011481,0.022507,0.016386,0.015071,0.019914,0.028494,0.023820,0.040287,0.031839,0.027419,0.013668,0.009444,0.018786,0.011397,0.023078,0.021340,0.020651,0.022427,0.010685,0.019639,0.018456,0.020631,0.022414,0.022905,0.017145,0.038224,0.023604,0.013856,0.025734,0.028722
1598855199.651403,120.000000,0.000000,4215.897461,4213.589844,4214.102539,4217.051270,4211.282227,4211.025879,4210.641113,4216.794922,4215.641113,4221.282227,4268.974121,4957.051270,4218.461426,4221.538574,0.000000,2.000000,,,,0.000000,0.000000,0.000000,0.000000,0.000000,0.000000,0.000000,0.000000,0.000000,0.000000,0.000000,0.000000,0.000000,0.000000,0.000000,0.000000,60.000000,0.000000,8208.000000,8092.000000,8206.000000,12219.000000,7690.000000,8571.000000,8143.000000,8114.000000,7647.000000,,,,,,,,,,,,,,,,,,,,,,,,,,,,,,,,,,,,,,,,,,,,,,,,,,,,,,,,,,,,,,,,,,,,,,,,,,,,,,,,,,,,,,,,,,,,,,,,,,,,,,,,,,,,,,,,,,,,
1598855199.659295,121.000000,0.000000,4215.512695,4213.589844,4214.871582,4217.307617,4208.846191,4210.769043,4211.410156,4216.794922,4212.563965,4219.743652,4267.820313,4955.897461,4214.871582,4220.256348,0.000000,2.000000,,,,0.000000,0.000000,0.000000,0.000000,0.000000,0.000000,0.000000,0.000000,0.000000,0.000000,0.000000,0.000000,0.000000,0.000000,0.000000,0.000000,,,,,,,,,,,,,,,,,,,,,,,,,,,,,,,,,,,,,,,,,,,,,,,,,,,,,,,,,,,,,,,,,,,,,,,,,,,,,,,,,,,,,,,,,,,,,,,,,,,,,,,,,,,,,,,,,,,,,,,,,,,,,,,
1598855199.667187,122.000000,0.000000,4216.025879,4211.282227,4215.128418,4216.153809,4210.512695,4211.794922,4209.615234,4216.794922,4215.000000,4220.128418,4269.358887,4954.615234,4215.641113,4226.282227,0.000000,2.000000,,,,0.000000,0.000000,0.000000,0.000000,0.000000,0.000000,0.000000,0.000000,0.000000,0.000000,0.000000,0.000000,0.000000,0.000000,0.000000,0.000000,61.000000,0.000000,8212.000000,8095.000000,8212.000000,12221.000000,7675.000000,8583.000000,8144.000000,8110.000000,7650.000000,,,,,,,,,,,,,,,,,,,,,,,,,,,,,,,,,,,,,,,,,,,,,,,,,,,,,,,,,,,,,,,,,,,,,,,,,,,,,,,,,,,,,,,,,,,,,,,,,,,,,,,,,,,,,,,,,,,,
1598855199.675079,123.000000,0.000000,4216.282227,4215.128418,4214.487305,4217.307617,4213.333496,4211.666504,4209.230957,4216.794922,4220.256348,4221.025879,4269.615234,4955.641113,4219.102539,4226.922852,0.000000,2.000000,,,,0.000000,0.000000,0.000000,0.000000,0.000000,0.000000,0.000000,0.000000,0.000000,0.000000,0.000000,0.000000,0.000000,0.000000,0.000000,0.000000,,,,,,,,,,,,,,,,,,,,,,,,,,,,,,,,,,,,,,,,,,,,,,,,,,,,,,,,,,,,,,,,,,,,,,,,,,,,,,,,,,,,,,,,,,,,,,,,,,,,,,,,,,,,,,,,,,,,,,,,,,,,,,,
1598855199.682971,124.000000,0.000000,4216.153809,4218.077148,4214.487305,4220.000000,4211.922852,4209.230957,4212.563965,4216.794922,4218.846191,4220.128418,4269.487305,4955.641113,4217.179688,4221.922852,0.000000,2.000000,,,,0.000000,0.000000,0.000000,0.000000,0.000000,0.000000,0.000000,0.000000,0.000000,0.000000,0.000000,0.000000,0.000000,0.000000,0.000000,0.000000,62.000000,0.000000,8211.000000,8096.000000,8204.000000,12221.000000,7665.000000,8578.000000,8142.000000,8104.000000,7650.000000,,,,,,,,,,,,,,,,,,,,,,,,,,,,,,,,,,,,,,,,,,,,,,,,,,,,,,,,,,,,,,,,,,,,,,,,,,,,,,,,,,,,,,,,,,,,,,,,,,,,,,,,,,,,,,,,,,,,
1598855199.690863,125.000000,0.000000,4217.179688,4211.666504,4215.384766,4217.179688,4210.256348,4211.025879,4213.077148,4216.794922,4215.256348,4221.410156,4269.615234,4952.436035,4213.974121,4220.256348,0.000000,2.000000,,,,0.000000,0.000000,0.000000,0.000000,0.000000,0.000000,0.000000,0.000000,0.000000,0.000000,0.000000,0.000000,0.000000,0.000000,0.000000,0.000000,,,,,,,,,,,,,,,,,,,,,,,,,,,,,,,,,,,,,,,,,,,,,,,,,,,,,,,,,,,,,,,,,,,,,,,,,,,,,,,,,,,,,,,,,,,,,,,,,,,,,,,,,,,,,,,,,,,,,,,,,,,,,,,
1598855199.698756,126.000000,0.000000,4217.307617,4208.974121,4217.563965,4213.717773,4213.846191,4214.102539,4209.871582,4216.794922,4215.512695,4219.871582,4267.307617,4954.487305,4215.256348,4222.820313,0.000000,2.000000,,,,0.000000,0.000000,0.000000,0.000000,0.000000,0.000000,0.000000,0.000000,0.000000,0.000000,0.000000,0.000000,0.000000,0.000000,0.000000,0.000000,63.000000,0.000000,8214.000000,8095.000000,8203.000000,12169.000000,7674.000000,8559.000000,8141.000000,8111.000000,7646.000000,,,,,,,,,,,,,,,,,,,,,,,,,,,,,,,,,,,,,,,,,,,,,,,,,,,,,,,,,,,,,,,,,,,,,,,,,,,,,,,,,,,,,,,,,,,,,,,,,,,,,,,,,,,,,,,,,,,,
1598855199.706648,127.000000,0.000000,4216.282227,4212.820313,4215.769043,4214.230957,4213.205078,4213.333496,4209.743652,4216.794922,4215.769043,4218.205078,4267.436035,4956.282227,4218.461426,4222.563965,51.000000,2.000000,,,,0.000000,0.000000,0.000000,0.000000,0.000000,0.000000,0.000000,0.000000,0.000000,0.000000,0.000000,0.000000,0.000000,0.000000,0.000000,0.000000,,,,,,,,,,,,,,,,,,,,,,,,,,,,,,,,,,,,,,,,,,,,,,,,,,,,,,,,,,,,,,,,,,,,,,,,,,,,,,,,,,,,,,,,,,,,,,,,,,,,,,,,,,,,,,,,,,,,,,,,,,,,,,,
1598855199.714540,0.000000,0.000000,4215.256348,4211.922852,4214.871582,4216.153809,4210.641113,4212.307617,4211.153809,4216.794922,4216.282227,4220.641113,4269.102539,4954.487305,4217.436035,4221.538574,0.000000,2.000000,,,,0.000000,0.000000,0.000000,0.000000,0.000000,0.000000,0.000000,0.000000,0.000000,0.000000,0.000000,0.000000,0.000000,0.000000,0.000000,0.000000,0.000000,0.000000,8208.000000,8095.000000,8206.000000,12227.000000,7677.000000,8561.000000,8143.000000,8115.000000,7648.000000,,,,,,,,,,,,,,,,,,,,,,,,,,,,,,,,,,,,,,,,,,,,,,,,,,,,,,,,,,,,,,,,,,,,,,,,,,,,,,,,,,,,,,,,,,,,,,,,,,,,,,,,,,,,,,,,,,,,
