title:demo marker, start timestamp:1598857035.561795, stop timestamp:1598857051.487267, headset type:EPOCPLUS, headset serial:3B9ADC97, headset firmware:625, subject name:deltaphase, channels:165, sampling rate:eeg_128;mot_64;pm_0.1;pow_8, samples:2025      , version:2.0
Timestamp,EEG.Counter,EEG.Interpolated,EEG.AF3,EEG.F7,EEG.F3,EEG.FC5,EEG.T7,EEG.P7,EEG.O1,EEG.O2,EEG.P8,EEG.T8,EEG.FC6,EEG.F4,EEG.F8,EEG.AF4,EEG.RawCq,EEG.Battery,MarkerIndex,MarkerType,MarkerValueInt,EEG.MarkerHardware,CQ.AF3,CQ.F7,CQ.F3,CQ.FC5,CQ.T7,CQ.P7,CQ.O1,CQ.O2,CQ.P8,CQ.T8,CQ.FC6,CQ.F4,CQ.F8,CQ.AF4,CQ.Overall,MOT.CounterMems,MOT.InterpolatedMems,MOT.GyroX,MOT.GyroY,MOT.GyroZ,MOT.AccX,MOT.AccY,MOT.AccZ,MOT.MagX,MOT.MagY,MOT.MagZ,PM.AuditoryAttention.IsActive,PM.AuditoryAttention.Scaled,PM.AuditoryAttention.Raw,PM.AuditoryAttention.Min,PM.AuditoryAttention.Max,PM.VisualAttention.IsActive,PM.VisualAttention.Scaled,PM.VisualAttention.Raw,PM.VisualAttention.Min,PM.VisualAttention.Max,PM.CognitiveStress.IsActive,PM.CognitiveStress.Scaled,PM.CognitiveStress.Raw,PM.CognitiveStress.Min,PM.CognitiveStress.Max,PM.Engagement.IsActive,PM.Engagement.Scaled,PM.Engagement.Raw,PM.Engagement.Min,PM.Engagement.Max,PM.Excitement.IsActive,PM.Excitement.Scaled,PM.Excitement.Raw,PM.Excitement.Min,PM.Excitement.Max,PM.LongTermExcitement,PM.Stress.IsActive,PM.Stress.Scaled,PM.Stress.Raw,PM.Stress.Min,PM.Stress.Max,PM.Relaxation.IsActive,PM.Relaxation.Scaled,PM.Relaxation.Raw,PM.Relaxation.Min,PM.Relaxation.Max,PM.Interest.IsActive,PM.Interest.Scaled,PM.Interest.Raw,PM.Interest.Min,PM.Interest.Max,PM.Focus.IsActive,PM.Focus.Scaled,PM.Focus.Raw,PM.Focus.Min,PM.Focus.Max,POW.AF3.Theta,POW.AF3.Alpha,POW.AF3.BetaL,POW.AF3.BetaH,POW.AF3.Gamma,POW.F7.Theta,POW.F7.Alpha,POW.F7.BetaL,POW.F7.BetaH,POW.F7.Gamma,POW.F3.Theta,POW.F3.Alpha,POW.F3.BetaL,POW.F3.BetaH,POW.F3.Gamma,POW.FC5.Theta,POW.FC5.Alpha,POW.FC5.BetaL,POW.FC5.BetaH,POW.FC5.Gamma,POW.T7.Theta,POW.T7.Alpha,POW.T7.BetaL,POW.T7.BetaH,POW.T7.Gamma,POW.P7.Theta,POW.P7.Alpha,POW.P7.BetaL,POW.P7.BetaH,POW.P7.Gamma,POW.O1.Theta,POW.O1.Alpha,POW.O1.BetaL,POW.O1.BetaH,POW.O1.Gamma,POW.O2.Theta,POW.O2.Alpha,POW.O2.BetaL,POW.O2.BetaH,POW.O2.Gamma,POW.P8.Theta,POW.P8.Alpha,POW.P8.BetaL,POW.P8.BetaH,POW.P8.Gamma,POW.T8.Theta,POW.T8.Alpha,POW.T8.BetaL,POW.T8.BetaH,POW.T8.Gamma,POW.FC6.Theta,POW.FC6.Alpha,POW.FC6.BetaL,POW.FC6.BetaH,POW.FC6.Gamma,POW.F4.Theta,POW.F4.Alpha,POW.F4.BetaL,POW.F4.BetaH,POW.F4.Gamma,POW.F8.Theta,POW.F8.Alpha,POW.F8.BetaL,POW.F8.BetaH,POW.F8.Gamma,POW.AF4.Theta,POW.AF4.Alpha,POW.AF4.BetaL,POW.AF4.BetaH,POW.AF4.Gamma
1598857035.561795,23.000000,0.000000,4261.922852,4262.820313,4236.153809,4247.436035,4257.179688,4220.384766,4229.487305,4233.974121,4250.512695,4232.179688,4233.589844,4262.436035,4247.051270,4242.563965,0.000000,2.000000,,,,0.000000,4.000000,4.000000,4.000000,4.000000,2.000000,4.000000,4.000000,4.000000,4.000000,4.000000,4.000000,4.000000,4.000000,2.000000,66.666664,,,,,,,,,,,,,,,,,,,,,,,,,,,,,,,,,,,,,,,,,,,,,,,,,,,,,,,,,,,,,,,,,,,,,,,,,,,,,,,,,,,,,,,,,,,,,,,,,,,,,,,,,,,,,,,,,,,,,,,,,,,,,,,
1598857035.569577,24.000000,0.000000,4252.948730,4255.384766,4235.897461,4238.077148,4274.615234,4232.820313,4228.077148,4241.282227,4250.128418,4220.769043,4235.256348,4261.153809,4243.077148,4240.512695,0.000000,2.000000,,,,0.000000,4.000000,4.000000,4.000000,4.000000,2.000000,4.000000,4.000000,4.000000,4.000000,4.000000,4.000000,4.000000,4.000000,2.000000,66.666664,12.000000,0.000000,8204.000000,8135.000000,8201.000000,4444.000000,8696.000000,9215.000000,8555.000000,7829.000000,7791.000000,,,,,,,,,,,,,,,,,,,,,,,,,,,,,,,,,,,,,,,,,,,,,,,1.603779,2.074161,1.501342,0.924937,0.119117,0.620569,1.233075,0.840719,0.810499,0.178039,1.301312,1.776090,1.310228,0.443302,0.137274,0.498182,0.504737,0.609757,0.411857,0.147699,0.439787,0.340380,0.335195,0.344166,0.286978,0.779824,0.341502,0.338997,0.151221,0.118179,0.691918,0.517922,0.792762,0.315211,0.138685,0.839862,1.769634,1.500224,0.461090,0.134561,1.196458,1.929478,1.709715,0.549518,0.181940,1.194621,2.507382,2.026086,0.781559,0.376893,0.181872,0.721003,0.747382,0.161502,0.101352,1.525676,1.907746,2.267483,1.186907,0.144020,0.883610,2.164343,2.239703,0.576278,0.233654,0.081667,0.109144,0.234505,0.124512,0.034216
1598857035.577459,25.000000,0.000000,4236.666504,4245.384766,4231.153809,4231.025879,4269.102539,4230.897461,4226.794922,4227.820313,4238.077148,4221.538574,4230.641113,4251.410156,4237.051270,4233.461426,0.000000,2.000000,,,,0.000000,4.000000,4.000000,4.000000,4.000000,2.000000,4.000000,4.000000,4.000000,4.000000,4.000000,4.000000,4.000000,4.000000,2.000000,66.666664,,,,,,,,,,,,,,,,,,,,,,,,,,,,,,,,,,,,,,,,,,,,,,,,,,,,,,,,,,,,,,,,,,,,,,,,,,,,,,,,,,,,,,,,,,,,,,,,,,,,,,,,,,,,,,,,,,,,,,,,,,,,,,,
1598857035.585341,26.000000,0.000000,4218.717773,4233.589844,4224.615234,4227.692383,4257.051270,4228.205078,4228.333496,4214.487305,4226.794922,4228.205078,4224.358887,4233.205078,4224.743652,4226.410156,0.000000,2.000000,,,,0.000000,4.000000,4.000000,4.000000,4.000000,2.000000,4.000000,4.000000,4.000000,4.000000,4.000000,4.000000,4.000000,4.000000,2.000000,66.666664,13.000000,0.000000,8194.000000,8142.000000,8202.000000,4457.000000,8700.000000,9228.000000,8552.000000,7829.000000,7790.000000,,,,,,,,,,,,,,,,,,,,,,,,,,,,,,,,,,,,,,,,,,,,,,,,,,,,,,,,,,,,,,,,,,,,,,,,,,,,,,,,,,,,,,,,,,,,,,,,,,,,,,,,,,,,,,,,,,,,
1598857035.593223,27.000000,0.000000,4212.436035,4232.820313,4230.128418,4224.230957,4265.641113,4230.641113,4231.794922,4228.717773,4238.846191,4221.666504,4226.922852,4229.871582,4226.025879,4225.384766,0.000000,2.000000,,,,0.000000,4.000000,4.000000,4.000000,4.000000,2.000000,4.000000,4.000000,4.000000,4.000000,4.000000,4.000000,4.000000,4.000000,2.000000,66.666664,,,,,,,,,,,,,,,,,,,,,,,,,,,,,,,,,,,,,,,,,,,,,,,,,,,,,,,,,,,,,,,,,,,,,,,,,,,,,,,,,,,,,,,,,,,,,,,,,,,,,,,,,,,,,,,,,,,,,,,,,,,,,,,
1598857035.601105,28.000000,0.000000,4218.333496,4248.846191,4242.563965,4227.692383,4273.589844,4225.128418,4229.615234,4250.384766,4264.487305,4232.948730,4233.333496,4241.538574,4242.436035,4227.051270,0.000000,2.000000,,,,0.000000,4.000000,4.000000,4.000000,4.000000,2.000000,4.000000,4.000000,4.000000,4.000000,4.000000,4.000000,4.000000,4.000000,2.000000,66.666664,14.000000,0.000000,8191.000000,8134.000000,8201.000000,4462.000000,8708.000000,9256.000000,8558.000000,7824.000000,7789.000000,,,,,,,,,,,,,,,,,,,,,,,,,,,,,,,,,,,,,,,,,,,,,,,,,,,,,,,,,,,,,,,,,,,,,,,,,,,,,,,,,,,,,,,,,,,,,,,,,,,,,,,,,,,,,,,,,,,,
1598857035.608986,29.000000,0.000000,4221.282227,4249.487305,4244.743652,4234.358887,4262.051270,4213.846191,4220.128418,4257.179688,4269.358887,4256.794922,4232.563965,4250.000000,4247.692383,4228.333496,0.000000,2.000000,,,,0.000000,4.000000,4.000000,4.000000,4.000000,2.000000,4.000000,4.000000,4.000000,4.000000,4.000000,4.000000,4.000000,4.000000,2.000000,66.666664,,,,,,,,,,,,,,,,,,,,,,,,,,,,,,,,,,,,,,,,,,,,,,,,,,,,,,,,,,,,,,,,,,,,,,,,,,,,,,,,,,,,,,,,,,,,,,,,,,,,,,,,,,,,,,,,,,,,,,,,,,,,,,,
1598857035.616868,30.000000,0.000000,4213.461426,4232.692383,4237.436035,4230.769043,4250.000000,4207.051270,4217.948730,4256.282227,4263.974121,4248.461426,4230.256348,4245.000000,4240.384766,4226.666504,0.000000,2.000000,,,,0.000000,4.000000,4.000000,4.000000,4.000000,2.000000,4.000000,4.000000,4.000000,4.000000,4.000000,4.000000,4.000000,4.000000,2.000000,66.666664,15.000000,0.000000,8196.000000,8136.000000,8191.000000,4460.000000,8713.000000,9252.000000,8555.000000,7832.000000,7787.000000,,,,,,,,,,,,,,,,,,,,,,,,,,,,,,,,,,,,,,,,,,,,,,,,,,,,,,,,,,,,,,,,,,,,,,,,,,,,,,,,,,,,,,,,,,,,,,,,,,,,,,,,,,,,,,,,,,,,
1598857035.624750,31.000000,0.000000,4201.410156,4228.974121,4232.179688,4219.743652,4255.384766,4203.077148,4230.128418,4257.948730,4263.974121,4235.769043,4229.743652,4235.769043,4230.512695,4227.307617,0.000000,2.000000,,,,0.000000,4.000000,4.000000,4.000000,4.000000,2.000000,4.000000,4.000000,4.000000,4.000000,4.000000,4.000000,4.000000,4.000000,2.000000,66.666664,,,,,,,,,,,,,,,,,,,,,,,,,,,,,,,,,,,,,,,,,,,,,,,,,,,,,,,,,,,,,,,,,,,,,,,,,,,,,,,,,,,,,,,,,,,,,,,,,,,,,,,,,,,,,,,,,,,,,,,,,,,,,,,
1598857035.632532,32.000000,0.000000,4192.179688,4229.230957,4230.256348,4211.922852,4259.358887,4204.358887,4237.563965,4253.333496,4254.230957,4236.153809,4224.487305,4233.974121,4217.307617,4224.615234,0.000000,2.000000,,,,0.000000,4.000000,4.000000,4.000000,4.000000,2.000000,4.000000,4.000000,4.000000,4.000000,4.000000,4.000000,4.000000,4.000000,2.000000,66.666664,16.000000,0.000000,8195.000000,8132.000000,8193.000000,4458.000000,8681.000000,9273.000000,8555.000000,7823.000000,7793.000000,,,,,,,,,,,,,,,,,,,,,,,,,,,,,,,,,,,,,,,,,,,,,,,,,,,,,,,,,,,,,,,,,,,,,,,,,,,,,,,,,,,,,,,,,,,,,,,,,,,,,,,,,,,,,,,,,,,,
1598857035.640415,33.000000,0.000000,4189.871582,4216.410156,4228.333496,4210.384766,4253.077148,4207.948730,4234.102539,4238.717773,4231.922852,4214.871582,4219.230957,4234.743652,4204.743652,4220.897461,0.000000,2.000000,,,,0.000000,4.000000,4.000000,4.000000,4.000000,2.000000,4.000000,4.000000,4.000000,4.000000,4.000000,4.000000,4.000000,4.000000,2.000000,66.666664,,,,,,,,,,,,,,,,,,,,,,,,,,,,,,,,,,,,,,,,,,,,,,,,,,,,,,,,,,,,,,,,,,,,,,,,,,,,,,,,,,,,,,,,,,,,,,,,,,,,,,,,,,,,,,,,,,,,,,,,,,,,,,,
1598857035.648297,34.000000,0.000000,4196.282227,4213.205078,4233.333496,4213.333496,4255.000000,4205.384766,4229.743652,4231.538574,4218.846191,4193.333496,4220.384766,4234.230957,4199.230957,4221.025879,0.000000,2.000000,,,,0.000000,4.000000,4.000000,4.000000,4.000000,2.000000,4.000000,4.000000,4.000000,4.000000,4.000000,4.000000,4.000000,4.000000,2.000000,66.666664,17.000000,0.000000,8213.000000,8121.000000,8190.000000,4475.000000,8698.000000,9258.000000,8554.000000,7830.000000,7791.000000,,,,,,,,,,,,,,,,,,,,,,,,,,,,,,,,,,,,,,,,,,,,,,,,,,,,,,,,,,,,,,,,,,,,,,,,,,,,,,,,,,,,,,,,,,,,,,,,,,,,,,,,,,,,,,,,,,,,
1598857035.656179,35.000000,0.000000,4204.487305,4226.410156,4243.205078,4216.410156,4255.256348,4205.128418,4223.205078,4237.563965,4222.051270,4200.512695,4220.512695,4236.410156,4202.820313,4223.205078,0.000000,2.000000,1,1,,0.000000,4.000000,4.000000,4.000000,4.000000,2.000000,4.000000,4.000000,4.000000,4.000000,4.000000,4.000000,4.000000,4.000000,2.000000,66.666664,,,,,,,,,,,,,,,,,,,,,,,,,,,,,,,,,,,,,,,,,,,,,,,,,,,,,,,,,,,,,,,,,,,,,,,,,,,,,,,,,,,,,,,,,,,,,,,,,,,,,,,,,,,,,,,,,,,,,,,,,,,,,,,
1598857035.664061,36.000000,0.000000,4202.051270,4229.358887,4239.871582,4221.153809,4245.256348,4213.461426,4218.589844,4238.205078,4226.794922,4203.077148,4215.641113,4232.307617,4201.538574,4219.743652,0.000000,2.000000,,,,0.000000,4.000000,4.000000,4.000000,4.000000,2.000000,4.000000,4.000000,4.000000,4.000000,4.000000,4.000000,4.000000,4.000000,2.000000,66.666664,18.000000,0.000000,8218.000000,8112.000000,8188.000000,4481.000000,8664.000000,9240.000000,8554.000000,7833.000000,7792.000000,,,,,,,,,,,,,,,,,,,,,,,,,,,,,,,,,,,,,,,,,,,,,,,,,,,,,,,,,,,,,,,,,,,,,,,,,,,,,,,,,,,,,,,,,,,,,,,,,,,,,,,,,,,,,,,,,,,,
1598857035.671943,37.000000,0.000000,4192.692383,4218.205078,4223.974121,4217.051270,4241.153809,4220.256348,4223.846191,4232.948730,4230.128418,4197.820313,4213.077148,4218.077148,4198.333496,4216.922852,0.000000,2.000000,,,,0.000000,4.000000,4.000000,4.000000,4.000000,2.000000,4.000000,4.000000,4.000000,4.000000,4.000000,4.000000,4.000000,4.000000,2.000000,66.666664,,,,,,,,,,,,,,,,,,,,,,,,,,,,,,,,,,,,,,,,,,,,,,,,,,,,,,,,,,,,,,,,,,,,,,,,,,,,,,,,,,,,,,,,,,,,,,,,,,,,,,,,,,,,,,,,,,,,,,,,,,,,,,,
1598857035.679825,38.000000,0.000000,4182.563965,4210.897461,4213.717773,4202.051270,4247.436035,4218.461426,4228.077148,4232.820313,4229.743652,4209.487305,4217.820313,4211.153809,4204.615234,4217.820313,0.000000,2.000000,,,,0.000000,4.000000,4.000000,4.000000,4.000000,2.000000,4.000000,4.000000,4.000000,4.000000,4.000000,4.000000,4.000000,4.000000,2.000000,66.666664,19.000000,0.000000,8220.000000,8106.000000,8194.000000,4463.000000,8656.000000,9236.000000,8553.000000,7828.000000,7791.000000,,,,,,,,,,,,,,,,,,,,,,,,,,,,,,,,,,,,,,,,,,,,,,,,,,,,,,,,,,,,,,,,,,,,,,,,,,,,,,,,,,,,,,,,,,,,,,,,,,,,,,,,,,,,,,,,,,,,
1598857035.687707,39.000000,0.000000,4184.487305,4219.743652,4221.666504,4205.384766,4253.205078,4215.128418,4231.538574,4236.025879,4233.846191,4221.794922,4227.436035,4226.794922,4213.974121,4221.538574,0.000000,2.000000,,,,0.000000,4.000000,4.000000,4.000000,4.000000,2.000000,4.000000,4.000000,4.000000,4.000000,4.000000,4.000000,4.000000,4.000000,2.000000,66.666664,,,,,,,,,,,,,,,,,,,,,,,,,,,,,,,,,,,,,,,,,,,,,,,,,,,,,,,,,,,,,,,,,,,,,,,,,,,,,,,,,,,,,,,,,,,,,,,,,,,,,,,,,,,,,,,,,,,,,,,,,,,,,,,
1598857035.695589,40.000000,0.000000,4197.051270,4233.589844,4233.461426,4220.128418,4248.077148,4215.384766,4233.974121,4239.102539,4239.615234,4231.794922,4233.717773,4244.358887,4218.077148,4224.102539,0.000000,2.000000,,,,0.000000,4.000000,4.000000,4.000000,4.000000,2.000000,4.000000,4.000000,4.000000,4.000000,4.000000,4.000000,4.000000,4.000000,2.000000,66.666664,20.000000,0.000000,8224.000000,8103.000000,8196.000000,4449.000000,8694.000000,9261.000000,8552.000000,7831.000000,7791.000000,,,,,,,,,,,,,,,,,,,,,,,,,,,,,,,,,,,,,,,,,,,,,,,2.345980,1.920109,1.200309,0.970321,0.117225,0.668410,1.227357,0.673006,0.955585,0.175458,0.858792,1.591906,1.098547,0.452504,0.143503,0.443719,0.510751,0.517943,0.469098,0.155975,0.529381,0.351193,0.254490,0.348961,0.278422,0.841151,0.292132,0.398827,0.160801,0.115321,0.738698,0.455422,0.855982,0.284909,0.126796,0.832270,1.389893,1.501590,0.456513,0.131068,1.432788,1.747315,1.779403,0.527702,0.187919,1.343408,2.021395,1.776105,0.757187,0.398049,0.202121,0.635740,0.760719,0.165128,0.106926,1.674806,1.781322,2.238757,1.098287,0.139757,0.959870,2.078537,2.238986,0.572997,0.230908,0.097160,0.119710,0.219516,0.128873,0.038909
1598857035.703471,41.000000,0.000000,4193.333496,4232.307617,4231.922852,4218.077148,4247.563965,4208.205078,4222.820313,4239.487305,4234.871582,4239.487305,4228.846191,4243.461426,4215.128418,4222.436035,0.000000,2.000000,,,,0.000000,4.000000,4.000000,4.000000,4.000000,2.000000,4.000000,4.000000,4.000000,4.000000,4.000000,4.000000,4.000000,4.000000,2.000000,66.666664,,,,,,,,,,,,,,,,,,,,,,,,,,,,,,,,,,,,,,,,,,,,,,,,,,,,,,,,,,,,,,,,,,,,,,,,,,,,,,,,,,,,,,,,,,,,,,,,,,,,,,,,,,,,,,,,,,,,,,,,,,,,,,,
1598857035.711253,42.000000,0.000000,4185.000000,4228.205078,4228.974121,4218.974121,4252.436035,4202.307617,4213.077148,4234.102539,4231.025879,4226.410156,4220.641113,4231.025879,4208.846191,4218.077148,0.000000,2.000000,,,,0.000000,4.000000,4.000000,4.000000,4.000000,2.000000,4.000000,4.000000,4.000000,4.000000,4.000000,4.000000,4.000000,4.000000,2.000000,66.666664,21.000000,0.000000,8217.000000,8108.000000,8195.000000,4464.000000,8705.000000,9230.000000,8553.000000,7830.000000,7791.000000,,,,,,,,,,,,,,,,,,,,,,,,,,,,,,,,,,,,,,,,,,,,,,,,,,,,,,,,,,,,,,,,,,,,,,,,,,,,,,,,,,,,,,,,,,,,,,,,,,,,,,,,,,,,,,,,,,,,
1598857035.719135,43.000000,0.000000,4189.615234,4232.692383,4230.897461,4229.487305,4249.487305,4203.333496,4214.871582,4229.487305,4229.871582,4205.384766,4215.128418,4218.974121,4202.436035,4216.410156,0.000000,2.000000,,,,0.000000,4.000000,4.000000,4.000000,4.000000,2.000000,4.000000,4.000000,4.000000,4.000000,4.000000,4.000000,4.000000,4.000000,2.000000,66.666664,,,,,,,,,,,,,,,,,,,,,,,,,,,,,,,,,,,,,,,,,,,,,,,,,,,,,,,,,,,,,,,,,,,,,,,,,,,,,,,,,,,,,,,,,,,,,,,,,,,,,,,,,,,,,,,,,,,,,,,,,,,,,,,
1598857035.727017,44.000000,0.000000,4187.820313,4228.846191,4226.666504,4220.512695,4247.563965,4199.102539,4215.384766,4230.384766,4224.615234,4199.743652,4214.230957,4216.025879,4199.487305,4219.230957,0.000000,2.000000,,,,0.000000,4.000000,4.000000,4.000000,4.000000,2.000000,4.000000,4.000000,4.000000,4.000000,4.000000,4.000000,4.000000,4.000000,2.000000,66.666664,22.000000,0.000000,8213.000000,8111.000000,8197.000000,4452.000000,8694.000000,9245.000000,8553.000000,7829.000000,7790.000000,,,,,,,,,,,,,,,,,,,,,,,,,,,,,,,,,,,,,,,,,,,,,,,,,,,,,,,,,,,,,,,,,,,,,,,,,,,,,,,,,,,,,,,,,,,,,,,,,,,,,,,,,,,,,,,,,,,,
1598857035.734899,45.000000,0.000000,4184.743652,4218.077148,4226.410156,4211.153809,4258.846191,4199.743652,4222.179688,4239.102539,4225.897461,4219.230957,4221.922852,4228.077148,4203.589844,4223.077148,0.000000,2.000000,,,,0.000000,4.000000,4.000000,4.000000,4.000000,2.000000,4.000000,4.000000,4.000000,4.000000,4.000000,4.000000,4.000000,4.000000,2.000000,66.666664,,,,,,,,,,,,,,,,,,,,,,,,,,,,,,,,,,,,,,,,,,,,,,,,,,,,,,,,,,,,,,,,,,,,,,,,,,,,,,,,,,,,,,,,,,,,,,,,,,,,,,,,,,,,,,,,,,,,,,,,,,,,,,,
1598857035.742781,46.000000,0.000000,4189.102539,4217.051270,4230.769043,4216.025879,4262.948730,4210.769043,4235.769043,4250.128418,4233.974121,4233.333496,4226.922852,4239.487305,4206.538574,4224.358887,0.000000,2.000000,,,,0.000000,4.000000,4.000000,4.000000,4.000000,2.000000,4.000000,4.000000,4.000000,4.000000,4.000000,4.000000,4.000000,4.000000,2.000000,66.666664,23.000000,0.000000,8211.000000,8106.000000,8200.000000,4443.000000,8677.000000,9230.000000,8553.000000,7828.000000,7791.000000,,,,,,,,,,,,,,,,,,,,,,,,,,,,,,,,,,,,,,,,,,,,,,,,,,,,,,,,,,,,,,,,,,,,,,,,,,,,,,,,,,,,,,,,,,,,,,,,,,,,,,,,,,,,,,,,,,,,
1598857035.750663,47.000000,0.000000,4178.333496,4216.666504,4222.436035,4209.871582,4247.948730,4215.512695,4236.282227,4248.205078,4234.230957,4216.922852,4218.333496,4229.358887,4198.333496,4217.179688,0.000000,2.000000,,,,0.000000,4.000000,4.000000,4.000000,4.000000,2.000000,4.000000,4.000000,4.000000,4.000000,4.000000,4.000000,4.000000,4.000000,2.000000,66.666664,,,,,,,,,,,,,,,,,,,,,,,,,,,,,,,,,,,,,,,,,,,,,,,,,,,,,,,,,,,,,,,,,,,,,,,,,,,,,,,,,,,,,,,,,,,,,,,,,,,,,,,,,,,,,,,,,,,,,,,,,,,,,,,
1598857035.758545,48.000000,0.000000,4159.358887,4208.589844,4210.256348,4198.333496,4236.666504,4219.743652,4236.282227,4244.102539,4236.153809,4206.794922,4208.846191,4212.948730,4184.102539,4209.615234,0.000000,2.000000,,,,0.000000,4.000000,4.000000,4.000000,4.000000,2.000000,4.000000,4.000000,4.000000,4.000000,4.000000,4.000000,4.000000,4.000000,2.000000,66.666664,24.000000,0.000000,8208.000000,8110.000000,8192.000000,4473.000000,8705.000000,9253.000000,8552.000000,7832.000000,7792.000000,,,,,,,,,,,,,,,,,,,,,,,,,,,,,,,,,,,,,,,,,,,,,,,,,,,,,,,,,,,,,,,,,,,,,,,,,,,,,,,,,,,,,,,,,,,,,,,,,,,,,,,,,,,,,,,,,,,,
1598857035.766427,49.000000,0.000000,4162.307617,4205.769043,4212.179688,4200.641113,4226.025879,4233.333496,4248.846191,4254.102539,4248.461426,4226.153809,4210.769043,4209.615234,4179.743652,4208.589844,0.000000,2.000000,,,,0.000000,4.000000,4.000000,4.000000,4.000000,2.000000,4.000000,4.000000,4.000000,4.000000,4.000000,4.000000,4.000000,4.000000,2.000000,66.666664,,,,,,,,,,,,,,,,,,,,,,,,,,,,,,,,,,,,,,,,,,,,,,,,,,,,,,,,,,,,,,,,,,,,,,,,,,,,,,,,,,,,,,,,,,,,,,,,,,,,,,,,,,,,,,,,,,,,,,,,,,,,,,,
1598857035.774308,50.000000,0.000000,4172.051270,4208.589844,4217.948730,4202.179688,4220.769043,4237.820313,4255.384766,4260.897461,4252.436035,4239.358887,4217.948730,4215.641113,4188.846191,4214.487305,0.000000,2.000000,,,,0.000000,4.000000,4.000000,4.000000,4.000000,2.000000,4.000000,4.000000,4.000000,4.000000,4.000000,4.000000,4.000000,4.000000,2.000000,66.666664,25.000000,0.000000,8208.000000,8107.000000,8190.000000,4457.000000,8676.000000,9257.000000,8557.000000,7829.000000,7793.000000,,,,,,,,,,,,,,,,,,,,,,,,,,,,,,,,,,,,,,,,,,,,,,,,,,,,,,,,,,,,,,,,,,,,,,,,,,,,,,,,,,,,,,,,,,,,,,,,,,,,,,,,,,,,,,,,,,,,
1598857035.782089,51.000000,0.000000,4176.153809,4211.794922,4216.025879,4198.974121,4247.948730,4227.436035,4249.871582,4254.230957,4246.282227,4229.615234,4219.487305,4222.307617,4203.205078,4215.128418,0.000000,2.000000,,,,0.000000,4.000000,4.000000,4.000000,4.000000,2.000000,4.000000,4.000000,4.000000,4.000000,4.000000,4.000000,4.000000,4.000000,2.000000,66.666664,,,,,,,,,,,,,,,,,,,,,,,,,,,,,,,,,,,,,,,,,,,,,,,,,,,,,,,,,,,,,,,,,,,,,,,,,,,,,,,,,,,,,,,,,,,,,,,,,,,,,,,,,,,,,,,,,,,,,,,,,,,,,,,
1598857035.789970,52.000000,0.000000,4183.974121,4216.025879,4215.000000,4200.641113,4282.948730,4218.974121,4244.358887,4251.538574,4247.692383,4232.948730,4221.922852,4227.051270,4220.128418,4218.461426,0.000000,2.000000,,,,0.000000,4.000000,4.000000,4.000000,4.000000,2.000000,4.000000,4.000000,4.000000,4.000000,4.000000,4.000000,4.000000,4.000000,2.000000,66.666664,26.000000,0.000000,8206.000000,8113.000000,8207.000000,4452.000000,8673.000000,9255.000000,8556.000000,7828.000000,7789.000000,,,,,,,,,,,,,,,,,,,,,,,,,,,,,,,,,,,,,,,,,,,,,,,,,,,,,,,,,,,,,,,,,,,,,,,,,,,,,,,,,,,,,,,,,,,,,,,,,,,,,,,,,,,,,,,,,,,,
1598857035.797851,53.000000,0.000000,4185.769043,4213.717773,4215.641113,4203.589844,4286.538574,4216.282227,4244.871582,4253.717773,4254.358887,4254.743652,4230.512695,4234.743652,4233.461426,4222.051270,0.000000,2.000000,,,,0.000000,4.000000,4.000000,4.000000,4.000000,2.000000,4.000000,4.000000,4.000000,4.000000,4.000000,4.000000,4.000000,4.000000,2.000000,66.666664,,,,,,,,,,,,,,,,,,,,,,,,,,,,,,,,,,,,,,,,,,,,,,,,,,,,,,,,,,,,,,,,,,,,,,,,,,,,,,,,,,,,,,,,,,,,,,,,,,,,,,,,,,,,,,,,,,,,,,,,,,,,,,,
1598857035.805632,54.000000,0.000000,4176.922852,4204.871582,4212.563965,4202.051270,4280.128418,4216.282227,4248.589844,4248.589844,4248.333496,4252.563965,4233.077148,4235.384766,4229.871582,4219.102539,0.000000,2.000000,,,,0.000000,4.000000,4.000000,4.000000,4.000000,2.000000,4.000000,4.000000,4.000000,4.000000,4.000000,4.000000,4.000000,4.000000,2.000000,66.666664,27.000000,0.000000,8203.000000,8114.000000,8194.000000,4454.000000,8719.000000,9278.000000,8557.000000,7831.000000,7791.000000,,,,,,,,,,,,,,,,,,,,,,,,,,,,,,,,,,,,,,,,,,,,,,,,,,,,,,,,,,,,,,,,,,,,,,,,,,,,,,,,,,,,,,,,,,,,,,,,,,,,,,,,,,,,,,,,,,,,
1598857035.813513,55.000000,0.000000,4168.589844,4199.743652,4203.333496,4199.487305,4276.153809,4218.205078,4252.051270,4243.333496,4231.153809,4227.051270,4220.641113,4222.948730,4207.051270,4209.615234,0.000000,2.000000,,,,0.000000,4.000000,4.000000,4.000000,4.000000,2.000000,4.000000,4.000000,4.000000,4.000000,4.000000,4.000000,4.000000,4.000000,2.000000,66.666664,,,,,,,,,,,,,,,,,,,,,,,,,,,,,,,,,,,,,,,,,,,,,,,,,,,,,,,,,,,,,,,,,,,,,,,,,,,,,,,,,,,,,,,,,,,,,,,,,,,,,,,,,,,,,,,,,,,,,,,,,,,,,,,
1598857035.821394,56.000000,0.000000,4168.974121,4203.461426,4201.282227,4204.230957,4254.358887,4217.436035,4252.563965,4241.282227,4219.871582,4214.102539,4210.641113,4212.948730,4183.205078,4207.820313,0.000000,2.000000,,,,0.000000,4.000000,4.000000,4.000000,4.000000,2.000000,4.000000,4.000000,4.000000,4.000000,4.000000,4.000000,4.000000,4.000000,2.000000,66.666664,28.000000,0.000000,8206.000000,8120.000000,8194.000000,4461.000000,8700.000000,9270.000000,8554.000000,7828.000000,7793.000000,,,,,,,,,,,,,,,,,,,,,,,,,,,,,,,,,,,,,,,,,,,,,,,3.857535,1.762893,1.009618,1.054420,0.120238,1.036018,1.195655,0.555699,1.109452,0.174612,0.659310,1.410973,0.889831,0.489737,0.154731,0.443933,0.535839,0.451036,0.536435,0.178089,0.816679,0.535674,0.261629,0.393255,0.310066,0.877377,0.302236,0.467588,0.196604,0.113116,0.758287,0.406512,0.919539,0.271590,0.114709,0.995946,1.190744,1.477494,0.485717,0.127202,1.880438,1.747583,1.798348,0.555748,0.195181,1.616061,1.802974,1.636214,0.743931,0.421125,0.256661,0.573336,0.768179,0.192470,0.108166,1.829367,1.680303,2.077351,1.048913,0.142157,1.316563,2.027160,2.214038,0.639294,0.220385,0.203588,0.129584,0.202896,0.140059,0.044132
1598857035.829275,57.000000,0.000000,4174.102539,4208.717773,4212.307617,4210.897461,4230.000000,4216.025879,4246.538574,4237.820313,4220.512695,4214.358887,4211.153809,4214.743652,4181.666504,4210.384766,0.000000,2.000000,,,,0.000000,4.000000,4.000000,4.000000,4.000000,2.000000,4.000000,4.000000,4.000000,4.000000,4.000000,4.000000,4.000000,4.000000,2.000000,66.666664,,,,,,,,,,,,,,,,,,,,,,,,,,,,,,,,,,,,,,,,,,,,,,,,,,,,,,,,,,,,,,,,,,,,,,,,,,,,,,,,,,,,,,,,,,,,,,,,,,,,,,,,,,,,,,,,,,,,,,,,,,,,,,,
1598857035.837157,58.000000,0.000000,4181.538574,4215.256348,4219.102539,4214.230957,4228.589844,4214.487305,4239.487305,4235.512695,4227.563965,4218.717773,4215.384766,4221.410156,4196.025879,4209.871582,0.000000,2.000000,,,,0.000000,4.000000,4.000000,4.000000,4.000000,2.000000,4.000000,4.000000,4.000000,4.000000,4.000000,4.000000,4.000000,4.000000,2.000000,66.666664,29.000000,0.000000,8204.000000,8127.000000,8190.000000,4454.000000,8669.000000,9272.000000,8556.000000,7830.000000,7791.000000,,,,,,,,,,,,,,,,,,,,,,,,,,,,,,,,,,,,,,,,,,,,,,,,,,,,,,,,,,,,,,,,,,,,,,,,,,,,,,,,,,,,,,,,,,,,,,,,,,,,,,,,,,,,,,,,,,,,
1598857035.844939,59.000000,0.000000,4192.563965,4223.846191,4220.897461,4215.256348,4240.769043,4215.256348,4243.205078,4238.974121,4235.769043,4227.051270,4218.974121,4231.922852,4201.410156,4212.051270,0.000000,2.000000,,,,0.000000,4.000000,4.000000,4.000000,4.000000,2.000000,4.000000,4.000000,4.000000,4.000000,4.000000,4.000000,4.000000,4.000000,2.000000,66.666664,,,,,,,,,,,,,,,,,,,,,,,,,,,,,,,,,,,,,,,,,,,,,,,,,,,,,,,,,,,,,,,,,,,,,,,,,,,,,,,,,,,,,,,,,,,,,,,,,,,,,,,,,,,,,,,,,,,,,,,,,,,,,,,
1598857035.852821,60.000000,0.000000,4195.512695,4220.641113,4222.436035,4215.384766,4245.000000,4216.153809,4248.333496,4239.230957,4233.846191,4225.384766,4218.333496,4236.410156,4197.179688,4215.897461,0.000000,2.000000,,,,0.000000,4.000000,4.000000,4.000000,4.000000,2.000000,4.000000,4.000000,4.000000,4.000000,4.000000,4.000000,4.000000,4.000000,2.000000,66.666664,30.000000,0.000000,8208.000000,8106.000000,8197.000000,4475.000000,8702.000000,9276.000000,8556.000000,7829.000000,7791.000000,,,,,,,,,,,,,,,,,,,,,,,,,,,,,,,,,,,,,,,,,,,,,,,,,,,,,,,,,,,,,,,,,,,,,,,,,,,,,,,,,,,,,,,,,,,,,,,,,,,,,,,,,,,,,,,,,,,,
1598857035.860703,61.000000,0.000000,4188.205078,4212.179688,4223.205078,4215.641113,4238.333496,4213.589844,4244.871582,4236.025879,4230.000000,4221.410156,4219.487305,4230.256348,4201.666504,4215.256348,0.000000,2.000000,,,,0.000000,4.000000,4.000000,4.000000,4.000000,2.000000,4.000000,4.000000,4.000000,4.000000,4.000000,4.000000,4.000000,4.000000,2.000000,66.666664,,,,,,,,,,,,,,,,,,,,,,,,,,,,,,,,,,,,,,,,,,,,,,,,,,,,,,,,,,,,,,,,,,,,,,,,,,,,,,,,,,,,,,,,,,,,,,,,,,,,,,,,,,,,,,,,,,,,,,,,,,,,,,,
1598857035.868585,62.000000,0.000000,4185.897461,4219.487305,4221.666504,4214.871582,4236.794922,4213.077148,4237.820313,4236.922852,4236.025879,4233.974121,4228.589844,4233.717773,4216.538574,4216.538574,0.000000,2.000000,,,,0.000000,4.000000,4.000000,4.000000,4.000000,2.000000,4.000000,4.000000,4.000000,4.000000,4.000000,4.000000,4.000000,4.000000,2.000000,66.666664,31.000000,0.000000,8205.000000,8112.000000,8190.000000,4470.000000,8688.000000,9267.000000,8552.000000,7829.000000,7792.000000,,,,,,,,,,,,,,,,,,,,,,,,,,,,,,,,,,,,,,,,,,,,,,,,,,,,,,,,,,,,,,,,,,,,,,,,,,,,,,,,,,,,,,,,,,,,,,,,,,,,,,,,,,,,,,,,,,,,
1598857035.876467,63.000000,0.000000,4196.922852,4226.025879,4229.102539,4216.025879,4236.153809,4215.256348,4236.410156,4242.436035,4239.102539,4236.794922,4233.589844,4247.051270,4227.307617,4223.077148,0.000000,2.000000,,,,0.000000,4.000000,4.000000,4.000000,4.000000,2.000000,4.000000,4.000000,4.000000,4.000000,4.000000,4.000000,4.000000,4.000000,2.000000,66.666664,,,,,,,,,,,,,,,,,,,,,,,,,,,,,,,,,,,,,,,,,,,,,,,,,,,,,,,,,,,,,,,,,,,,,,,,,,,,,,,,,,,,,,,,,,,,,,,,,,,,,,,,,,,,,,,,,,,,,,,,,,,,,,,
1598857035.884349,64.000000,0.000000,4212.179688,4221.794922,4240.256348,4218.205078,4227.307617,4216.410156,4240.641113,4245.256348,4238.077148,4231.282227,4232.307617,4255.769043,4233.589844,4225.256348,3205.000000,2.000000,,,,0.000000,4.000000,4.000000,4.000000,4.000000,2.000000,4.000000,4.000000,4.000000,4.000000,4.000000,4.000000,4.000000,4.000000,2.000000,66.666664,32.000000,0.000000,8211.000000,8101.000000,8198.000000,4466.000000,8674.000000,9264.000000,8552.000000,7830.000000,7792.000000,,,,,,,,,,,,,,,,,,,,,,,,,,,,,,,,,,,,,,,,,,,,,,,,,,,,,,,,,,,,,,,,,,,,,,,,,,,,,,,,,,,,,,,,,,,,,,,,,,,,,,,,,,,,,,,,,,,,
1598857035.892232,65.000000,0.000000,4218.205078,4224.743652,4244.230957,4217.948730,4235.512695,4214.615234,4239.743652,4243.846191,4236.794922,4244.102539,4233.077148,4261.410156,4235.769043,4222.436035,3316.000000,2.000000,,,,0.000000,4.000000,4.000000,4.000000,4.000000,2.000000,4.000000,4.000000,4.000000,4.000000,4.000000,4.000000,4.000000,4.000000,2.000000,66.666664,,,,,,,,,,,,,,,,,,,,,,,,,,,,,,,,,,,,,,,,,,,,,,,,,,,,,,,,,,,,,,,,,,,,,,,,,,,,,,,,,,,,,,,,,,,,,,,,,,,,,,,,,,,,,,,,,,,,,,,,,,,,,,,
1598857035.900114,66.000000,0.000000,4218.461426,4235.384766,4242.307617,4218.846191,4250.641113,4216.153809,4232.820313,4238.717773,4235.769043,4244.871582,4232.436035,4260.128418,4235.128418,4222.436035,3575.000000,2.000000,,,,0.000000,4.000000,4.000000,4.000000,4.000000,2.000000,4.000000,4.000000,4.000000,4.000000,4.000000,4.000000,4.000000,4.000000,2.000000,66.666664,33.000000,0.000000,8205.000000,8098.000000,8189.000000,4465.000000,8691.000000,9268.000000,8556.000000,7828.000000,7790.000000,,,,,,,,,,,,,,,,,,,,,,,,,,,,,,,,,,,,,,,,,,,,,,,,,,,,,,,,,,,,,,,,,,,,,,,,,,,,,,,,,,,,,,,,,,,,,,,,,,,,,,,,,,,,,,,,,,,,
1598857035.907996,67.000000,0.000000,4213.333496,4238.205078,4237.692383,4222.436035,4246.794922,4215.512695,4230.512695,4235.000000,4231.538574,4231.666504,4231.538574,4250.641113,4234.230957,4226.410156,3434.000000,2.000000,,,,0.000000,4.000000,4.000000,4.000000,4.000000,2.000000,4.000000,4.000000,4.000000,4.000000,4.000000,4.000000,4.000000,4.000000,2.000000,66.666664,,,,,,,,,,,,,,,,,,,,,,,,,,,,,,,,,,,,,,,,,,,,,,,,,,,,,,,,,,,,,,,,,,,,,,,,,,,,,,,,,,,,,,,,,,,,,,,,,,,,,,,,,,,,,,,,,,,,,,,,,,,,,,,
1598857035.915777,68.000000,0.000000,4202.820313,4230.256348,4228.461426,4217.948730,4239.230957,4209.102539,4231.282227,4236.282227,4223.333496,4236.410156,4231.025879,4242.307617,4226.153809,4221.153809,1644.000000,2.000000,,,,0.000000,4.000000,4.000000,4.000000,4.000000,4.000000,4.000000,4.000000,4.000000,4.000000,4.000000,4.000000,4.000000,4.000000,2.000000,83.333336,34.000000,0.000000,8210.000000,8106.000000,8203.000000,4463.000000,8670.000000,9251.000000,8555.000000,7830.000000,7792.000000,,,,,,,,,,,,,,,,,,,,,,,,,,,,,,,,,,,,,,,,,,,,,,,,,,,,,,,,,,,,,,,,,,,,,,,,,,,,,,,,,,,,,,,,,,,,,,,,,,,,,,,,,,,,,,,,,,,,
1598857035.923657,69.000000,0.000000,4196.666504,4217.948730,4221.922852,4208.717773,4242.179688,4208.333496,4232.307617,4237.307617,4219.871582,4233.846191,4224.230957,4238.205078,4214.487305,4213.205078,3481.000000,2.000000,,,,0.000000,4.000000,4.000000,4.000000,4.000000,4.000000,4.000000,4.000000,4.000000,4.000000,4.000000,4.000000,4.000000,4.000000,2.000000,83.333336,,,,,,,,,,,,,,,,,,,,,,,,,,,,,,,,,,,,,,,,,,,,,,,,,,,,,,,,,,,,,,,,,,,,,,,,,,,,,,,,,,,,,,,,,,,,,,,,,,,,,,,,,,,,,,,,,,,,,,,,,,,,,,,
1598857035.931538,70.000000,0.000000,4199.102539,4216.282227,4224.871582,4213.461426,4237.948730,4210.512695,4235.128418,4234.743652,4222.436035,4215.256348,4217.436035,4233.589844,4210.897461,4213.205078,3457.000000,2.000000,,,,0.000000,4.000000,4.000000,4.000000,4.000000,4.000000,4.000000,4.000000,4.000000,4.000000,4.000000,4.000000,4.000000,4.000000,2.000000,83.333336,35.000000,0.000000,8200.000000,8113.000000,8199.000000,4469.000000,8699.000000,9252.000000,8554.000000,7829.000000,7790.000000,,,,,,,,,,,,,,,,,,,,,,,,,,,,,,,,,,,,,,,,,,,,,,,,,,,,,,,,,,,,,,,,,,,,,,,,,,,,,,,,,,,,,,,,,,,,,,,,,,,,,,,,,,,,,,,,,,,,
1598857035.939319,71.000000,0.000000,4200.000000,4221.666504,4227.820313,4219.871582,4221.794922,4203.717773,4235.000000,4234.743652,4224.102539,4211.282227,4217.307617,4229.487305,4208.205078,4217.820313,2921.000000,2.000000,,,,0.000000,4.000000,4.000000,4.000000,4.000000,4.000000,4.000000,4.000000,4.000000,4.000000,4.000000,4.000000,4.000000,4.000000,2.000000,83.333336,,,,,,,,,,,,,,,,,,,,,,,,,,,,,,,,,,,,,,,,,,,,,,,,,,,,,,,,,,,,,,,,,,,,,,,,,,,,,,,,,,,,,,,,,,,,,,,,,,,,,,,,,,,,,,,,,,,,,,,,,,,,,,,
1598857035.947201,72.000000,0.000000,4199.615234,4216.025879,4224.102539,4211.538574,4223.974121,4197.948730,4232.179688,4235.897461,4220.384766,4218.461426,4219.615234,4231.410156,4203.461426,4213.333496,3451.000000,2.000000,,,,0.000000,4.000000,4.000000,4.000000,4.000000,4.000000,4.000000,4.000000,4.000000,4.000000,4.000000,4.000000,4.000000,4.000000,2.000000,83.333336,36.000000,0.000000,8197.000000,8117.000000,8193.000000,4461.000000,8714.000000,9261.000000,8554.000000,7835.000000,7789.000000,,,,,,,,,,,,,,,,,,,,,,,,,,,,,,,,,,,,,,,,,,,,,,,6.338537,1.664900,0.960610,1.171402,0.126464,1.829530,1.156264,0.507587,1.251393,0.177853,0.711774,1.245021,0.711270,0.555383,0.170064,0.502812,0.576116,0.438525,0.611110,0.209992,1.327407,0.913498,0.399197,0.497438,0.384976,0.889077,0.386597,0.528500,0.249754,0.112235,0.772695,0.369307,0.961322,0.293148,0.102801,1.254346,1.202534,1.413445,0.561650,0.126198,2.482904,2.004596,1.767577,0.652813,0.202826,1.987553,1.953359,1.598891,0.737828,0.443285,0.328801,0.535720,0.744750,0.242295,0.104095,1.948168,1.579418,1.784289,1.090999,0.149653,1.985291,2.034738,2.153834,0.784120,0.203668,0.434343,0.141830,0.188390,0.160553,0.049226
1598857035.955082,73.000000,0.000000,4196.025879,4205.384766,4213.461426,4201.153809,4251.410156,4202.820313,4231.538574,4232.692383,4218.205078,4215.256348,4219.487305,4230.769043,4199.102539,4209.615234,3592.000000,2.000000,,,,0.000000,4.000000,4.000000,4.000000,4.000000,4.000000,4.000000,4.000000,4.000000,4.000000,4.000000,4.000000,4.000000,4.000000,2.000000,83.333336,,,,,,,,,,,,,,,,,,,,,,,,,,,,,,,,,,,,,,,,,,,,,,,,,,,,,,,,,,,,,,,,,,,,,,,,,,,,,,,,,,,,,,,,,,,,,,,,,,,,,,,,,,,,,,,,,,,,,,,,,,,,,,,
1598857035.962964,74.000000,0.000000,4178.974121,4200.897461,4200.000000,4196.538574,4262.948730,4203.205078,4228.333496,4223.589844,4217.948730,4207.820313,4215.897461,4222.563965,4194.871582,4212.692383,3550.000000,2.000000,,,,0.000000,4.000000,4.000000,4.000000,4.000000,4.000000,4.000000,4.000000,4.000000,4.000000,4.000000,4.000000,4.000000,4.000000,2.000000,83.333336,37.000000,0.000000,8197.000000,8110.000000,8201.000000,4451.000000,8682.000000,9272.000000,8556.000000,7836.000000,7789.000000,,,,,,,,,,,,,,,,,,,,,,,,,,,,,,,,,,,,,,,,,,,,,,,,,,,,,,,,,,,,,,,,,,,,,,,,,,,,,,,,,,,,,,,,,,,,,,,,,,,,,,,,,,,,,,,,,,,,
1598857035.970845,75.000000,0.000000,4169.743652,4200.256348,4196.794922,4199.487305,4245.128418,4202.692383,4227.820313,4216.538574,4212.436035,4213.205078,4215.128418,4221.282227,4198.589844,4217.820313,748.000000,2.000000,,,,0.000000,4.000000,4.000000,4.000000,4.000000,4.000000,4.000000,4.000000,4.000000,4.000000,4.000000,4.000000,4.000000,4.000000,2.000000,83.333336,,,,,,,,,,,,,,,,,,,,,,,,,,,,,,,,,,,,,,,,,,,,,,,,,,,,,,,,,,,,,,,,,,,,,,,,,,,,,,,,,,,,,,,,,,,,,,,,,,,,,,,,,,,,,,,,,,,,,,,,,,,,,,,
1598857035.978726,76.000000,0.000000,4185.128418,4207.563965,4205.384766,4206.794922,4241.666504,4207.820313,4233.717773,4219.487305,4213.717773,4235.512695,4223.974121,4232.307617,4212.563965,4218.077148,1716.000000,2.000000,,,,0.000000,4.000000,4.000000,4.000000,4.000000,4.000000,4.000000,4.000000,4.000000,4.000000,4.000000,4.000000,4.000000,4.000000,2.000000,83.333336,38.000000,0.000000,8201.000000,8118.000000,8194.000000,4461.000000,8693.000000,9279.000000,8556.000000,7828.000000,7790.000000,,,,,,,,,,,,,,,,,,,,,,,,,,,,,,,,,,,,,,,,,,,,,,,,,,,,,,,,,,,,,,,,,,,,,,,,,,,,,,,,,,,,,,,,,,,,,,,,,,,,,,,,,,,,,,,,,,,,
1598857035.986508,77.000000,0.000000,4203.717773,4219.487305,4215.256348,4213.974121,4246.794922,4207.051270,4233.974121,4223.846191,4225.769043,4249.487305,4230.512695,4236.666504,4227.051270,4220.128418,3445.000000,2.000000,,,,0.000000,4.000000,4.000000,4.000000,4.000000,4.000000,4.000000,4.000000,4.000000,4.000000,4.000000,4.000000,4.000000,4.000000,2.000000,83.333336,,,,,,,,,,,,,,,,,,,,,,,,,,,,,,,,,,,,,,,,,,,,,,,,,,,,,,,,,,,,,,,,,,,,,,,,,,,,,,,,,,,,,,,,,,,,,,,,,,,,,,,,,,,,,,,,,,,,,,,,,,,,,,,
1598857035.994390,78.000000,0.000000,4210.128418,4227.820313,4216.794922,4221.410156,4233.846191,4205.769043,4227.948730,4223.717773,4232.948730,4238.333496,4227.563965,4233.205078,4232.692383,4222.307617,3550.000000,2.000000,,,,0.000000,4.000000,4.000000,4.000000,4.000000,4.000000,4.000000,4.000000,4.000000,4.000000,4.000000,4.000000,4.000000,4.000000,2.000000,83.333336,39.000000,0.000000,8191.000000,8116.000000,8197.000000,4465.000000,8692.000000,9284.000000,8552.000000,7834.000000,7791.000000,,,,,,,,,,,,,,,,,,,,,,,,,,,,,,,,,,,,,,,,,,,,,,,,,,,,,,,,,,,,,,,,,,,,,,,,,,,,,,,,,,,,,,,,,,,,,,,,,,,,,,,,,,,,,,,,,,,,
1598857036.002272,79.000000,0.000000,4215.512695,4233.461426,4217.820313,4225.769043,4234.487305,4215.000000,4228.461426,4225.512695,4229.871582,4227.820313,4227.692383,4240.641113,4233.589844,4219.230957,748.000000,2.000000,,,,0.000000,4.000000,4.000000,4.000000,4.000000,4.000000,4.000000,4.000000,4.000000,4.000000,4.000000,4.000000,4.000000,4.000000,2.000000,83.333336,,,,,,,,,,,,,,,,,,,,,,,,,,,,,,,,,,,,,,,,,,,,,,,,,,,,,,,,,,,,,,,,,,,,,,,,,,,,,,,,,,,,,,,,,,,,,,,,,,,,,,,,,,,,,,,,,,,,,,,,,,,,,,,
1598857036.010154,80.000000,0.000000,4217.051270,4235.000000,4221.538574,4221.794922,4247.051270,4224.615234,4235.512695,4229.487305,4232.436035,4233.846191,4233.077148,4247.692383,4231.794922,4216.922852,1716.000000,2.000000,,,,0.000000,4.000000,4.000000,4.000000,4.000000,4.000000,4.000000,4.000000,4.000000,4.000000,4.000000,4.000000,4.000000,4.000000,2.000000,83.333336,40.000000,0.000000,8196.000000,8124.000000,8195.000000,4466.000000,8698.000000,9265.000000,8552.000000,7832.000000,7790.000000,,,,,,,,,,,,,,,,,,,,,,,,,,,,,,,,,,,,,,,,,,,,,,,,,,,,,,,,,,,,,,,,,,,,,,,,,,,,,,,,,,,,,,,,,,,,,,,,,,,,,,,,,,,,,,,,,,,,
1598857036.018036,81.000000,0.000000,4207.436035,4226.666504,4219.487305,4209.871582,4251.410156,4222.820313,4239.615234,4223.846191,4234.230957,4237.307617,4226.538574,4238.077148,4223.846191,4216.410156,3445.000000,2.000000,,,,0.000000,4.000000,4.000000,4.000000,4.000000,4.000000,4.000000,4.000000,4.000000,4.000000,4.000000,4.000000,4.000000,4.000000,2.000000,83.333336,,,,,,,,,,,,,,,,,,,,,,,,,,,,,,,,,,,,,,,,,,,,,,,,,,,,,,,,,,,,,,,,,,,,,,,,,,,,,,,,,,,,,,,,,,,,,,,,,,,,,,,,,,,,,,,,,,,,,,,,,,,,,,,
1598857036.025918,82.000000,0.000000,4196.922852,4214.871582,4206.794922,4202.692383,4254.102539,4217.051270,4237.692383,4217.948730,4219.487305,4227.692383,4216.153809,4226.025879,4215.000000,4218.205078,3550.000000,2.000000,,,,0.000000,4.000000,4.000000,4.000000,4.000000,4.000000,4.000000,4.000000,4.000000,4.000000,4.000000,4.000000,4.000000,4.000000,2.000000,83.333336,41.000000,0.000000,8198.000000,8121.000000,8197.000000,4456.000000,8699.000000,9301.000000,8551.000000,7832.000000,7790.000000,,,,,,,,,,,,,,,,,,,,,,,,,,,,,,,,,,,,,,,,,,,,,,,,,,,,,,,,,,,,,,,,,,,,,,,,,,,,,,,,,,,,,,,,,,,,,,,,,,,,,,,,,,,,,,,,,,,,
1598857036.033800,83.000000,0.000000,4198.846191,4216.666504,4198.846191,4206.153809,4250.897461,4215.769043,4233.974121,4220.769043,4213.974121,4226.282227,4217.307617,4227.307617,4213.717773,4217.179688,748.000000,2.000000,,,,0.000000,4.000000,4.000000,4.000000,4.000000,4.000000,4.000000,4.000000,4.000000,4.000000,4.000000,4.000000,4.000000,4.000000,2.000000,83.333336,,,,,,,,,,,,,,,,,,,,,,,,,,,,,,,,,,,,,,,,,,,,,,,,,,,,,,,,,,,,,,,,,,,,,,,,,,,,,,,,,,,,,,,,,,,,,,,,,,,,,,,,,,,,,,,,,,,,,,,,,,,,,,,
1598857036.041682,84.000000,0.000000,4207.692383,4227.563965,4205.000000,4213.333496,4244.487305,4218.846191,4233.717773,4220.897461,4224.358887,4242.051270,4220.769043,4231.538574,4215.897461,4214.871582,1716.000000,2.000000,,,,0.000000,4.000000,4.000000,4.000000,4.000000,4.000000,4.000000,4.000000,4.000000,4.000000,4.000000,4.000000,4.000000,4.000000,2.000000,83.333336,42.000000,0.000000,8200.000000,8131.000000,8193.000000,4464.000000,8677.000000,9276.000000,8556.000000,7832.000000,7792.000000,,,,,,,,,,,,,,,,,,,,,,,,,,,,,,,,,,,,,,,,,,,,,,,,,,,,,,,,,,,,,,,,,,,,,,,,,,,,,,,,,,,,,,,,,,,,,,,,,,,,,,,,,,,,,,,,,,,,
1598857036.049463,85.000000,0.000000,4208.077148,4226.922852,4207.307617,4213.974121,4242.563965,4213.333496,4232.948730,4215.128418,4226.666504,4243.846191,4217.692383,4223.846191,4211.666504,4213.461426,3445.000000,2.000000,,,,0.000000,4.000000,4.000000,4.000000,4.000000,4.000000,4.000000,4.000000,4.000000,4.000000,4.000000,4.000000,4.000000,4.000000,2.000000,83.333336,,,,,,,,,,,,,,,,,,,,,,,,,,,,,,,,,,,,,,,,,,,,,,,,,,,,,,,,,,,,,,,,,,,,,,,,,,,,,,,,,,,,,,,,,,,,,,,,,,,,,,,,,,,,,,,,,,,,,,,,,,,,,,,
1598857036.057344,86.000000,0.000000,4202.436035,4218.589844,4207.436035,4210.384766,4245.000000,4199.615234,4228.589844,4211.282227,4223.077148,4220.128418,4216.538574,4219.615234,4213.974121,4217.563965,3550.000000,2.000000,,,,0.000000,4.000000,4.000000,4.000000,4.000000,4.000000,4.000000,4.000000,4.000000,4.000000,4.000000,4.000000,4.000000,4.000000,2.000000,83.333336,43.000000,0.000000,8207.000000,8126.000000,8191.000000,4458.000000,8676.000000,9276.000000,8557.000000,7831.000000,7790.000000,,,,,,,,,,,,,,,,,,,,,,,,,,,,,,,,,,,,,,,,,,,,,,,,,,,,,,,,,,,,,,,,,,,,,,,,,,,,,,,,,,,,,,,,,,,,,,,,,,,,,,,,,,,,,,,,,,,,
1598857036.065225,87.000000,0.000000,4206.153809,4219.102539,4210.769043,4215.128418,4244.487305,4202.820313,4229.102539,4214.487305,4227.179688,4217.179688,4223.974121,4228.974121,4226.794922,4221.025879,748.000000,2.000000,,,,0.000000,4.000000,4.000000,4.000000,4.000000,4.000000,4.000000,4.000000,4.000000,4.000000,4.000000,4.000000,4.000000,4.000000,2.000000,83.333336,,,,,,,,,,,,,,,,,,,,,,,,,,,,,,,,,,,,,,,,,,,,,,,,,,,,,,,,,,,,,,,,,,,,,,,,,,,,,,,,,,,,,,,,,,,,,,,,,,,,,,,,,,,,,,,,,,,,,,,,,,,,,,,
1598857036.073106,88.000000,0.000000,4215.897461,4221.153809,4211.922852,4220.000000,4246.922852,4218.077148,4232.820313,4224.871582,4236.922852,4241.153809,4230.897461,4237.692383,4232.436035,4222.820313,1716.000000,2.000000,,,,0.000000,4.000000,4.000000,4.000000,4.000000,4.000000,4.000000,4.000000,4.000000,4.000000,4.000000,4.000000,4.000000,4.000000,2.000000,83.333336,44.000000,0.000000,8204.000000,8125.000000,8194.000000,4471.000000,8703.000000,9265.000000,8554.000000,7820.000000,7790.000000,,,,,,,,,,,,,,,,,,,,,,,,,,,,,,,,,,,,,,,,,,,,,,,9.661896,1.654089,1.018602,1.309023,0.134853,3.033265,1.122259,0.510632,1.353378,0.187215,1.015401,1.082044,0.569941,0.640619,0.187072,0.640499,0.620624,0.475916,0.683647,0.243153,2.030489,1.452491,0.715522,0.674095,0.491457,0.913010,0.571802,0.572079,0.305293,0.112957,0.801849,0.351579,0.981928,0.359080,0.092128,1.594236,1.362781,1.320714,0.673334,0.130210,3.199009,2.476697,1.736814,0.803610,0.209954,2.425774,2.460426,1.659442,0.736842,0.468644,0.396375,0.525400,0.673992,0.305968,0.095853,2.039296,1.455744,1.404548,1.243729,0.159706,2.884111,2.159122,2.056377,0.995522,0.185156,0.776525,0.159351,0.175720,0.189445,0.053284
1598857036.080988,89.000000,0.000000,4210.769043,4218.333496,4207.179688,4211.922852,4244.358887,4221.538574,4232.692383,4235.512695,4246.282227,4249.487305,4231.282227,4236.538574,4230.000000,4223.461426,3445.000000,2.000000,,,,0.000000,4.000000,4.000000,4.000000,4.000000,4.000000,4.000000,4.000000,4.000000,4.000000,4.000000,4.000000,4.000000,4.000000,2.000000,83.333336,,,,,,,,,,,,,,,,,,,,,,,,,,,,,,,,,,,,,,,,,,,,,,,,,,,,,,,,,,,,,,,,,,,,,,,,,,,,,,,,,,,,,,,,,,,,,,,,,,,,,,,,,,,,,,,,,,,,,,,,,,,,,,,
1598857036.088769,90.000000,0.000000,4200.897461,4215.000000,4202.948730,4201.538574,4237.051270,4216.794922,4238.333496,4241.666504,4252.692383,4250.384766,4228.333496,4232.051270,4229.230957,4222.692383,3550.000000,2.000000,,,,0.000000,4.000000,4.000000,4.000000,4.000000,4.000000,4.000000,4.000000,4.000000,4.000000,4.000000,4.000000,4.000000,4.000000,2.000000,83.333336,45.000000,0.000000,8216.000000,8123.000000,8199.000000,4457.000000,8661.000000,9272.000000,8555.000000,7829.000000,7790.000000,,,,,,,,,,,,,,,,,,,,,,,,,,,,,,,,,,,,,,,,,,,,,,,,,,,,,,,,,,,,,,,,,,,,,,,,,,,,,,,,,,,,,,,,,,,,,,,,,,,,,,,,,,,,,,,,,,,,
1598857036.096651,91.000000,0.000000,4206.922852,4216.025879,4207.692383,4206.025879,4239.743652,4219.871582,4248.461426,4237.692383,4247.436035,4262.307617,4226.025879,4231.410156,4232.051270,4218.846191,748.000000,2.000000,,,,0.000000,4.000000,4.000000,4.000000,4.000000,4.000000,4.000000,4.000000,4.000000,4.000000,4.000000,4.000000,4.000000,4.000000,2.000000,83.333336,,,,,,,,,,,,,,,,,,,,,,,,,,,,,,,,,,,,,,,,,,,,,,,,,,,,,,,,,,,,,,,,,,,,,,,,,,,,,,,,,,,,,,,,,,,,,,,,,,,,,,,,,,,,,,,,,,,,,,,,,,,,,,,
1598857036.104533,92.000000,0.000000,4216.410156,4218.461426,4215.384766,4213.461426,4240.256348,4221.025879,4245.000000,4231.153809,4235.769043,4261.153809,4228.717773,4239.102539,4230.128418,4219.358887,1716.000000,2.000000,,,,0.000000,4.000000,4.000000,4.000000,4.000000,4.000000,4.000000,4.000000,4.000000,4.000000,4.000000,4.000000,4.000000,4.000000,2.000000,83.333336,46.000000,0.000000,8213.000000,8120.000000,8195.000000,4465.000000,8698.000000,9255.000000,8552.000000,7826.000000,7790.000000,,,,,,,,,,,,,,,,,,,,,,,,,,,,,,,,,,,,,,,,,,,,,,,,,,,,,,,,,,,,,,,,,,,,,,,,,,,,,,,,,,,,,,,,,,,,,,,,,,,,,,,,,,,,,,,,,,,,
1598857036.112414,93.000000,0.000000,4218.333496,4220.897461,4217.307617,4213.589844,4232.948730,4217.436035,4240.512695,4230.000000,4232.948730,4242.692383,4231.794922,4251.410156,4228.077148,4222.948730,3445.000000,2.000000,,,,0.000000,4.000000,4.000000,4.000000,4.000000,4.000000,4.000000,4.000000,4.000000,4.000000,4.000000,4.000000,4.000000,4.000000,2.000000,83.333336,,,,,,,,,,,,,,,,,,,,,,,,,,,,,,,,,,,,,,,,,,,,,,,,,,,,,,,,,,,,,,,,,,,,,,,,,,,,,,,,,,,,,,,,,,,,,,,,,,,,,,,,,,,,,,,,,,,,,,,,,,,,,,,
1598857036.120296,94.000000,0.000000,4217.820313,4225.897461,4213.717773,4216.922852,4234.487305,4221.794922,4244.102539,4227.820313,4232.692383,4227.820313,4229.487305,4248.846191,4230.384766,4225.384766,3550.000000,2.000000,,,,0.000000,4.000000,4.000000,4.000000,4.000000,4.000000,4.000000,4.000000,4.000000,4.000000,4.000000,4.000000,4.000000,4.000000,2.000000,83.333336,47.000000,0.000000,8214.000000,8122.000000,8196.000000,4465.000000,8695.000000,9253.000000,8557.000000,7829.000000,7789.000000,,,,,,,,,,,,,,,,,,,,,,,,,,,,,,,,,,,,,,,,,,,,,,,,,,,,,,,,,,,,,,,,,,,,,,,,,,,,,,,,,,,,,,,,,,,,,,,,,,,,,,,,,,,,,,,,,,,,
1598857036.128177,95.000000,0.000000,4219.230957,4231.538574,4209.102539,4220.769043,4248.461426,4225.512695,4237.692383,4222.820313,4229.102539,4225.641113,4226.666504,4233.589844,4231.666504,4220.512695,748.000000,2.000000,,,,0.000000,4.000000,4.000000,4.000000,4.000000,4.000000,4.000000,4.000000,4.000000,4.000000,4.000000,4.000000,4.000000,4.000000,2.000000,83.333336,,,,,,,,,,,,,,,,,,,,,,,,,,,,,,,,,,,,,,,,,,,,,,,,,,,,,,,,,,,,,,,,,,,,,,,,,,,,,,,,,,,,,,,,,,,,,,,,,,,,,,,,,,,,,,,,,,,,,,,,,,,,,,,
1598857036.136059,96.000000,0.000000,4216.282227,4232.692383,4201.025879,4214.871582,4252.948730,4218.846191,4225.384766,4222.948730,4226.794922,4234.487305,4227.948730,4233.077148,4230.256348,4218.717773,1716.000000,2.000000,,,,0.000000,4.000000,4.000000,4.000000,4.000000,4.000000,4.000000,4.000000,4.000000,4.000000,4.000000,4.000000,4.000000,4.000000,2.000000,83.333336,48.000000,0.000000,8213.000000,8125.000000,8196.000000,4464.000000,8652.000000,9256.000000,8553.000000,7834.000000,7791.000000,,,,,,,,,,,,,,,,,,,,,,,,,,,,,,,,,,,,,,,,,,,,,,,,,,,,,,,,,,,,,,,,,,,,,,,,,,,,,,,,,,,,,,,,,,,,,,,,,,,,,,,,,,,,,,,,,,,,
1598857036.143941,97.000000,0.000000,4214.743652,4229.743652,4200.256348,4212.563965,4249.487305,4214.487305,4228.077148,4231.922852,4231.410156,4250.769043,4230.000000,4245.769043,4232.051270,4223.974121,3445.000000,2.000000,,,,0.000000,4.000000,4.000000,4.000000,4.000000,4.000000,4.000000,4.000000,4.000000,4.000000,4.000000,4.000000,4.000000,4.000000,2.000000,83.333336,,,,,,,,,,,,,,,,,,,,,,,,,,,,,,,,,,,,,,,,,,,,,,,,,,,,,,,,,,,,,,,,,,,,,,,,,,,,,,,,,,,,,,,,,,,,,,,,,,,,,,,,,,,,,,,,,,,,,,,,,,,,,,,
1598857036.151721,98.000000,0.000000,4219.230957,4227.948730,4210.000000,4218.077148,4249.871582,4220.128418,4235.384766,4234.615234,4237.436035,4250.128418,4231.025879,4244.743652,4233.974121,4222.307617,3550.000000,2.000000,,,,0.000000,4.000000,4.000000,4.000000,4.000000,4.000000,4.000000,4.000000,4.000000,4.000000,4.000000,4.000000,4.000000,4.000000,2.000000,83.333336,49.000000,0.000000,8210.000000,8123.000000,8199.000000,4459.000000,8657.000000,9239.000000,8552.000000,7830.000000,7794.000000,,,,,,,,,,,,,,,,,,,,,,,,,,,,,,,,,,,,,,,,,,,,,,,,,,,,,,,,,,,,,,,,,,,,,,,,,,,,,,,,,,,,,,,,,,,,,,,,,,,,,,,,,,,,,,,,,,,,
1598857036.159602,99.000000,0.000000,4217.051270,4222.179688,4205.897461,4215.256348,4238.717773,4218.717773,4231.538574,4225.256348,4233.205078,4233.077148,4229.487305,4230.000000,4227.948730,4212.820313,748.000000,2.000000,,,,0.000000,4.000000,4.000000,4.000000,4.000000,4.000000,4.000000,4.000000,4.000000,4.000000,4.000000,4.000000,4.000000,4.000000,2.000000,83.333336,,,,,,,,,,,,,,,,,,,,,,,,,,,,,,,,,,,,,,,,,,,,,,,,,,,,,,,,,,,,,,,,,,,,,,,,,,,,,,,,,,,,,,,,,,,,,,,,,,,,,,,,,,,,,,,,,,,,,,,,,,,,,,,
1598857036.167382,100.000000,0.000000,4213.974121,4219.102539,4195.769043,4210.897461,4241.410156,4220.256348,4229.358887,4221.410156,4227.436035,4237.692383,4228.846191,4223.589844,4228.077148,4212.051270,1716.000000,2.000000,,,,0.000000,4.000000,4.000000,4.000000,4.000000,4.000000,4.000000,4.000000,4.000000,4.000000,4.000000,4.000000,4.000000,4.000000,2.000000,83.333336,50.000000,0.000000,8208.000000,8121.000000,8194.000000,4458.000000,8722.000000,9263.000000,8552.000000,7831.000000,7788.000000,,,,,,,,,,,,,,,,,,,,,,,,,,,,,,,,,,,,,,,,,,,,,,,,,,,,,,,,,,,,,,,,,,,,,,,,,,,,,,,,,,,,,,,,,,,,,,,,,,,,,,,,,,,,,,,,,,,,
1598857036.175263,101.000000,0.000000,4216.025879,4226.922852,4198.333496,4216.282227,4264.487305,4231.538574,4235.769043,4231.922852,4230.897461,4251.666504,4232.051270,4235.256348,4234.487305,4221.153809,3445.000000,2.000000,,,,0.000000,4.000000,4.000000,4.000000,4.000000,4.000000,4.000000,4.000000,4.000000,4.000000,4.000000,4.000000,4.000000,4.000000,2.000000,83.333336,,,,,,,,,,,,,,,,,,,,,,,,,,,,,,,,,,,,,,,,,,,,,,,,,,,,,,,,,,,,,,,,,,,,,,,,,,,,,,,,,,,,,,,,,,,,,,,,,,,,,,,,,,,,,,,,,,,,,,,,,,,,,,,
1598857036.183044,102.000000,0.000000,4219.358887,4232.820313,4207.692383,4221.410156,4264.230957,4228.077148,4236.666504,4235.641113,4233.717773,4249.230957,4232.307617,4245.512695,4237.051270,4222.820313,3550.000000,2.000000,,,,0.000000,4.000000,4.000000,4.000000,4.000000,4.000000,4.000000,4.000000,4.000000,4.000000,4.000000,4.000000,4.000000,4.000000,2.000000,83.333336,51.000000,0.000000,8209.000000,8117.000000,8198.000000,4447.000000,8673.000000,9230.000000,8554.000000,7832.000000,7790.000000,,,,,,,,,,,,,,,,,,,,,,,,,,,,,,,,,,,,,,,,,,,,,,,,,,,,,,,,,,,,,,,,,,,,,,,,,,,,,,,,,,,,,,,,,,,,,,,,,,,,,,,,,,,,,,,,,,,,
1598857036.190926,103.000000,0.000000,4222.307617,4230.897461,4215.384766,4219.230957,4244.230957,4215.128418,4227.307617,4221.153809,4225.384766,4244.743652,4233.205078,4240.000000,4239.102539,4221.282227,748.000000,2.000000,,,,0.000000,4.000000,4.000000,4.000000,4.000000,4.000000,4.000000,4.000000,4.000000,4.000000,4.000000,4.000000,4.000000,4.000000,2.000000,83.333336,,,,,,,,,,,,,,,,,,,,,,,,,,,,,,,,,,,,,,,,,,,,,,,,,,,,,,,,,,,,,,,,,,,,,,,,,,,,,,,,,,,,,,,,,,,,,,,,,,,,,,,,,,,,,,,,,,,,,,,,,,,,,,,
1598857036.198808,104.000000,0.000000,4225.897461,4225.512695,4213.974121,4215.641113,4240.384766,4210.769043,4217.307617,4209.871582,4216.922852,4243.333496,4234.230957,4232.051270,4238.205078,4222.179688,1716.000000,2.000000,,,,0.000000,4.000000,4.000000,4.000000,4.000000,4.000000,4.000000,4.000000,4.000000,4.000000,4.000000,4.000000,4.000000,4.000000,2.000000,83.333336,52.000000,0.000000,8207.000000,8123.000000,8195.000000,4438.000000,8699.000000,9248.000000,8554.000000,7832.000000,7790.000000,,,,,,,,,,,,,,,,,,,,,,,,,,,,,,,,,,,,,,,,,,,,,,,13.098243,1.709023,1.119968,1.449339,0.143735,4.452876,1.096989,0.540840,1.388939,0.202576,1.556540,0.910481,0.460758,0.732604,0.201282,0.878115,0.652341,0.535763,0.739595,0.267576,2.751767,2.077159,1.215590,0.922672,0.603103,0.965682,0.864372,0.601051,0.346364,0.114881,0.890760,0.362712,0.993546,0.462077,0.084559,1.941129,1.553180,1.236771,0.785857,0.138763,3.913598,3.009061,1.778094,0.961882,0.216076,2.846536,3.223330,1.803685,0.740786,0.502787,0.442902,0.548189,0.562860,0.370535,0.086681,2.123416,1.315362,1.011791,1.475687,0.169259,3.785447,2.476841,1.937300,1.235130,0.169639,1.156402,0.184661,0.163001,0.221969,0.055563
1598857036.206689,105.000000,0.000000,4225.512695,4226.538574,4208.717773,4215.512695,4251.282227,4207.948730,4215.000000,4213.717773,4214.615234,4232.051270,4225.641113,4234.230957,4231.666504,4223.974121,3445.000000,2.000000,,,,0.000000,4.000000,4.000000,4.000000,4.000000,4.000000,4.000000,4.000000,4.000000,4.000000,4.000000,4.000000,4.000000,4.000000,2.000000,83.333336,,,,,,,,,,,,,,,,,,,,,,,,,,,,,,,,,,,,,,,,,,,,,,,,,,,,,,,,,,,,,,,,,,,,,,,,,,,,,,,,,,,,,,,,,,,,,,,,,,,,,,,,,,,,,,,,,,,,,,,,,,,,,,,
1598857036.214571,106.000000,0.000000,4220.000000,4229.102539,4207.051270,4217.051270,4248.333496,4206.538574,4222.051270,4215.769043,4213.077148,4220.897461,4220.641113,4233.077148,4224.358887,4219.358887,3550.000000,2.000000,,,,0.000000,4.000000,4.000000,4.000000,4.000000,4.000000,4.000000,4.000000,4.000000,4.000000,4.000000,4.000000,4.000000,4.000000,2.000000,83.333336,53.000000,0.000000,8206.000000,8126.000000,8193.000000,4443.000000,8673.000000,9238.000000,8556.000000,7839.000000,7792.000000,,,,,,,,,,,,,,,,,,,,,,,,,,,,,,,,,,,,,,,,,,,,,,,,,,,,,,,,,,,,,,,,,,,,,,,,,,,,,,,,,,,,,,,,,,,,,,,,,,,,,,,,,,,,,,,,,,,,
1598857036.222453,107.000000,0.000000,4217.948730,4222.820313,4205.256348,4216.666504,4236.666504,4221.282227,4232.692383,4216.025879,4214.487305,4233.589844,4231.153809,4227.692383,4225.128418,4215.384766,748.000000,2.000000,,,,0.000000,4.000000,4.000000,4.000000,4.000000,4.000000,4.000000,4.000000,4.000000,4.000000,4.000000,4.000000,4.000000,4.000000,2.000000,83.333336,,,,,,,,,,,,,,,,,,,,,,,,,,,,,,,,,,,,,,,,,,,,,,,,,,,,,,,,,,,,,,,,,,,,,,,,,,,,,,,,,,,,,,,,,,,,,,,,,,,,,,,,,,,,,,,,,,,,,,,,,,,,,,,
1598857036.230235,108.000000,0.000000,4217.820313,4218.333496,4197.436035,4213.717773,4235.000000,4232.948730,4237.051270,4218.205078,4216.025879,4246.282227,4234.743652,4235.641113,4227.436035,4216.282227,1716.000000,2.000000,,,,0.000000,4.000000,4.000000,4.000000,4.000000,4.000000,4.000000,4.000000,4.000000,4.000000,4.000000,4.000000,4.000000,4.000000,2.000000,83.333336,54.000000,0.000000,8210.000000,8125.000000,8197.000000,4459.000000,8713.000000,9245.000000,8559.000000,7829.000000,7793.000000,,,,,,,,,,,,,,,,,,,,,,,,,,,,,,,,,,,,,,,,,,,,,,,,,,,,,,,,,,,,,,,,,,,,,,,,,,,,,,,,,,,,,,,,,,,,,,,,,,,,,,,,,,,,,,,,,,,,
1598857036.238117,109.000000,0.000000,4219.743652,4226.794922,4198.846191,4216.410156,4247.820313,4223.589844,4230.769043,4218.717773,4216.282227,4236.794922,4227.563965,4245.512695,4228.461426,4222.051270,3445.000000,2.000000,,,,0.000000,4.000000,4.000000,4.000000,4.000000,4.000000,4.000000,4.000000,4.000000,4.000000,4.000000,4.000000,4.000000,4.000000,2.000000,83.333336,,,,,,,,,,,,,,,,,,,,,,,,,,,,,,,,,,,,,,,,,,,,,,,,,,,,,,,,,,,,,,,,,,,,,,,,,,,,,,,,,,,,,,,,,,,,,,,,,,,,,,,,,,,,,,,,,,,,,,,,,,,,,,,
1598857036.245999,110.000000,0.000000,4229.102539,4235.512695,4210.512695,4223.974121,4248.846191,4216.538574,4219.615234,4216.922852,4224.743652,4229.871582,4230.512695,4246.025879,4235.384766,4222.692383,3550.000000,2.000000,,,,0.000000,4.000000,4.000000,4.000000,4.000000,4.000000,4.000000,4.000000,4.000000,4.000000,4.000000,4.000000,4.000000,4.000000,2.000000,83.333336,55.000000,0.000000,8197.000000,8122.000000,8192.000000,4453.000000,8678.000000,9257.000000,8557.000000,7830.000000,7792.000000,,,,,,,,,,,,,,,,,,,,,,,,,,,,,,,,,,,,,,,,,,,,,,,,,,,,,,,,,,,,,,,,,,,,,,,,,,,,,,,,,,,,,,,,,,,,,,,,,,,,,,,,,,,,,,,,,,,,
1598857036.253881,111.000000,0.000000,4244.230957,4235.641113,4219.743652,4229.230957,4234.871582,4217.051270,4211.153809,4216.666504,4234.102539,4246.282227,4239.487305,4248.205078,4247.563965,4221.922852,748.000000,2.000000,,,,0.000000,4.000000,4.000000,4.000000,4.000000,4.000000,4.000000,4.000000,4.000000,4.000000,4.000000,4.000000,4.000000,4.000000,2.000000,83.333336,,,,,,,,,,,,,,,,,,,,,,,,,,,,,,,,,,,,,,,,,,,,,,,,,,,,,,,,,,,,,,,,,,,,,,,,,,,,,,,,,,,,,,,,,,,,,,,,,,,,,,,,,,,,,,,,,,,,,,,,,,,,,,,
1598857036.261763,112.000000,0.000000,4246.794922,4235.897461,4221.794922,4230.128418,4248.461426,4210.000000,4212.820313,4218.717773,4227.051270,4257.820313,4238.974121,4256.025879,4256.538574,4226.794922,1716.000000,2.000000,,,,0.000000,4.000000,4.000000,4.000000,4.000000,4.000000,4.000000,4.000000,4.000000,4.000000,4.000000,4.000000,4.000000,4.000000,2.000000,83.333336,56.000000,0.000000,8196.000000,8119.000000,8190.000000,4479.000000,8691.000000,9251.000000,8553.000000,7829.000000,7788.000000,,,,,,,,,,,,,,,,,,,,,,,,,,,,,,,,,,,,,,,,,,,,,,,,,,,,,,,,,,,,,,,,,,,,,,,,,,,,,,,,,,,,,,,,,,,,,,,,,,,,,,,,,,,,,,,,,,,,
1598857036.269646,113.000000,0.000000,4230.512695,4230.641113,4214.102539,4226.282227,4261.025879,4208.589844,4222.051270,4218.974121,4218.205078,4244.871582,4233.333496,4254.615234,4249.871582,4227.179688,3445.000000,2.000000,,,,0.000000,4.000000,4.000000,4.000000,4.000000,4.000000,4.000000,4.000000,4.000000,4.000000,4.000000,4.000000,4.000000,4.000000,2.000000,83.333336,,,,,,,,,,,,,,,,,,,,,,,,,,,,,,,,,,,,,,,,,,,,,,,,,,,,,,,,,,,,,,,,,,,,,,,,,,,,,,,,,,,,,,,,,,,,,,,,,,,,,,,,,,,,,,,,,,,,,,,,,,,,,,,
1598857036.277528,114.000000,0.000000,4209.615234,4212.436035,4199.615234,4211.666504,4235.128418,4211.153809,4221.282227,4211.666504,4216.922852,4224.102539,4229.743652,4235.897461,4233.461426,4216.794922,3550.000000,2.000000,,,,0.000000,4.000000,4.000000,4.000000,4.000000,4.000000,4.000000,4.000000,4.000000,4.000000,4.000000,4.000000,4.000000,4.000000,2.000000,83.333336,57.000000,0.000000,8198.000000,8126.000000,8185.000000,4472.000000,8679.000000,9271.000000,8552.000000,7831.000000,7792.000000,,,,,,,,,,,,,,,,,,,,,,,,,,,,,,,,,,,,,,,,,,,,,,,,,,,,,,,,,,,,,,,,,,,,,,,,,,,,,,,,,,,,,,,,,,,,,,,,,,,,,,,,,,,,,,,,,,,,
1598857036.285410,115.000000,0.000000,4204.487305,4201.794922,4193.717773,4198.589844,4226.922852,4204.615234,4215.512695,4202.179688,4204.743652,4221.282227,4229.615234,4228.846191,4232.179688,4215.256348,748.000000,2.000000,,,,0.000000,4.000000,4.000000,4.000000,4.000000,4.000000,4.000000,4.000000,4.000000,4.000000,4.000000,4.000000,4.000000,4.000000,2.000000,83.333336,,,,,,,,,,,,,,,,,,,,,,,,,,,,,,,,,,,,,,,,,,,,,,,,,,,,,,,,,,,,,,,,,,,,,,,,,,,,,,,,,,,,,,,,,,,,,,,,,,,,,,,,,,,,,,,,,,,,,,,,,,,,,,,
1598857036.293292,116.000000,0.000000,4217.692383,4211.025879,4200.384766,4207.436035,4258.077148,4204.743652,4221.282227,4206.282227,4193.461426,4234.230957,4232.307617,4242.692383,4245.641113,4224.615234,1716.000000,2.000000,,,,0.000000,4.000000,4.000000,4.000000,4.000000,4.000000,4.000000,4.000000,4.000000,4.000000,4.000000,4.000000,4.000000,4.000000,2.000000,83.333336,58.000000,0.000000,8204.000000,8116.000000,8187.000000,4457.000000,8664.000000,9270.000000,8552.000000,7831.000000,7791.000000,,,,,,,,,,,,,,,,,,,,,,,,,,,,,,,,,,,,,,,,,,,,,,,,,,,,,,,,,,,,,,,,,,,,,,,,,,,,,,,,,,,,,,,,,,,,,,,,,,,,,,,,,,,,,,,,,,,,
1598857036.301174,117.000000,0.000000,4223.717773,4220.512695,4202.692383,4218.205078,4270.769043,4211.794922,4225.384766,4207.948730,4200.897461,4224.358887,4229.743652,4241.922852,4239.871582,4222.051270,3445.000000,2.000000,,,,0.000000,4.000000,4.000000,4.000000,4.000000,4.000000,4.000000,4.000000,4.000000,4.000000,4.000000,4.000000,4.000000,4.000000,2.000000,83.333336,,,,,,,,,,,,,,,,,,,,,,,,,,,,,,,,,,,,,,,,,,,,,,,,,,,,,,,,,,,,,,,,,,,,,,,,,,,,,,,,,,,,,,,,,,,,,,,,,,,,,,,,,,,,,,,,,,,,,,,,,,,,,,,
1598857036.308956,118.000000,0.000000,4212.563965,4214.230957,4195.128418,4206.025879,4258.717773,4201.025879,4211.538574,4191.794922,4200.128418,4201.282227,4219.102539,4217.563965,4213.974121,4212.307617,3550.000000,2.000000,,,,0.000000,4.000000,4.000000,4.000000,4.000000,4.000000,4.000000,4.000000,4.000000,4.000000,4.000000,4.000000,4.000000,4.000000,2.000000,83.333336,59.000000,0.000000,8207.000000,8107.000000,8196.000000,4449.000000,8657.000000,9267.000000,8554.000000,7831.000000,7793.000000,,,,,,,,,,,,,,,,,,,,,,,,,,,,,,,,,,,,,,,,,,,,,,,,,,,,,,,,,,,,,,,,,,,,,,,,,,,,,,,,,,,,,,,,,,,,,,,,,,,,,,,,,,,,,,,,,,,,
1598857036.316838,119.000000,0.000000,4211.538574,4210.128418,4194.871582,4199.230957,4263.461426,4195.256348,4204.871582,4184.102539,4188.461426,4209.230957,4215.897461,4213.846191,4210.000000,4212.948730,748.000000,2.000000,,,,0.000000,4.000000,4.000000,4.000000,4.000000,4.000000,4.000000,4.000000,4.000000,4.000000,4.000000,4.000000,4.000000,4.000000,2.000000,83.333336,,,,,,,,,,,,,,,,,,,,,,,,,,,,,,,,,,,,,,,,,,,,,,,,,,,,,,,,,,,,,,,,,,,,,,,,,,,,,,,,,,,,,,,,,,,,,,,,,,,,,,,,,,,,,,,,,,,,,,,,,,,,,,,
1598857036.324720,120.000000,0.000000,4229.358887,4223.717773,4208.205078,4215.000000,4263.974121,4212.307617,4218.846191,4200.384766,4200.384766,4230.256348,4226.282227,4239.358887,4226.410156,4221.153809,1716.000000,2.000000,,,,0.000000,4.000000,4.000000,4.000000,4.000000,4.000000,4.000000,4.000000,4.000000,4.000000,4.000000,4.000000,4.000000,4.000000,2.000000,83.333336,60.000000,0.000000,8210.000000,8113.000000,8197.000000,4472.000000,8657.000000,9243.000000,8553.000000,7827.000000,7793.000000,,,,,,,,,,,,,,,,,,,,,,,,,,,,,,,,,,,,,,,,,,,,,,,15.778288,1.790706,1.198917,1.571130,0.151439,5.759764,1.074303,0.576442,1.345013,0.220596,2.241940,0.751127,0.380858,0.819049,0.207656,1.205515,0.658906,0.588724,0.765937,0.276104,3.312343,2.664570,1.828110,1.219894,0.688194,1.042572,1.231130,0.625527,0.360178,0.117881,1.034162,0.406651,0.997170,0.572739,0.082172,2.238424,1.666992,1.196525,0.853762,0.149370,4.486833,3.422597,1.918691,1.068155,0.220767,3.143615,4.075973,1.982634,0.753960,0.548267,0.461338,0.619808,0.439568,0.420167,0.080531,2.239502,1.219605,0.685914,1.709935,0.176884,4.448526,3.072777,1.828069,1.443352,0.159774,1.469894,0.221456,0.150043,0.249771,0.055843
1598857036.332603,121.000000,0.000000,4235.897461,4235.384766,4217.820313,4224.358887,4236.666504,4215.897461,4221.666504,4210.769043,4216.538574,4227.692383,4231.538574,4251.153809,4231.794922,4222.307617,3445.000000,2.000000,,,,0.000000,4.000000,4.000000,4.000000,4.000000,4.000000,4.000000,4.000000,4.000000,4.000000,4.000000,4.000000,4.000000,4.000000,2.000000,83.333336,,,,,,,,,,,,,,,,,,,,,,,,,,,,,,,,,,,,,,,,,,,,,,,,,,,,,,,,,,,,,,,,,,,,,,,,,,,,,,,,,,,,,,,,,,,,,,,,,,,,,,,,,,,,,,,,,,,,,,,,,,,,,,,
1598857036.340485,122.000000,0.000000,4233.333496,4232.692383,4216.153809,4220.000000,4219.230957,4207.692383,4214.358887,4204.615234,4212.820313,4223.717773,4231.025879,4250.256348,4233.461426,4221.666504,3550.000000,2.000000,,,,0.000000,4.000000,4.000000,4.000000,4.000000,4.000000,4.000000,4.000000,4.000000,4.000000,4.000000,4.000000,4.000000,4.000000,2.000000,83.333336,61.000000,0.000000,8210.000000,8120.000000,8203.000000,4444.000000,8664.000000,9258.000000,8556.000000,7834.000000,7795.000000,,,,,,,,,,,,,,,,,,,,,,,,,,,,,,,,,,,,,,,,,,,,,,,,,,,,,,,,,,,,,,,,,,,,,,,,,,,,,,,,,,,,,,,,,,,,,,,,,,,,,,,,,,,,,,,,,,,,
1598857036.348367,123.000000,0.000000,4239.102539,4234.487305,4215.769043,4220.128418,4229.615234,4215.128418,4224.871582,4207.051270,4212.820313,4246.922852,4234.871582,4259.871582,4248.589844,4221.794922,748.000000,2.000000,,,,0.000000,4.000000,4.000000,4.000000,4.000000,4.000000,4.000000,4.000000,4.000000,4.000000,4.000000,4.000000,4.000000,4.000000,2.000000,83.333336,,,,,,,,,,,,,,,,,,,,,,,,,,,,,,,,,,,,,,,,,,,,,,,,,,,,,,,,,,,,,,,,,,,,,,,,,,,,,,,,,,,,,,,,,,,,,,,,,,,,,,,,,,,,,,,,,,,,,,,,,,,,,,,
1598857036.356249,124.000000,0.000000,4238.461426,4237.051270,4215.128418,4220.128418,4242.692383,4221.794922,4236.666504,4215.256348,4218.846191,4255.641113,4236.794922,4262.051270,4253.846191,4224.871582,1716.000000,2.000000,,,,0.000000,4.000000,4.000000,4.000000,4.000000,4.000000,4.000000,4.000000,4.000000,4.000000,4.000000,4.000000,4.000000,4.000000,2.000000,83.333336,62.000000,0.000000,8209.000000,8129.000000,8203.000000,4438.000000,8689.000000,9230.000000,8556.000000,7829.000000,7792.000000,,,,,,,,,,,,,,,,,,,,,,,,,,,,,,,,,,,,,,,,,,,,,,,,,,,,,,,,,,,,,,,,,,,,,,,,,,,,,,,,,,,,,,,,,,,,,,,,,,,,,,,,,,,,,,,,,,,,
1598857036.364131,125.000000,0.000000,4228.846191,4226.153809,4207.820313,4212.692383,4232.307617,4212.436035,4227.179688,4213.461426,4220.512695,4229.871582,4231.538574,4246.153809,4234.487305,4223.461426,3445.000000,2.000000,,,,0.000000,4.000000,4.000000,4.000000,4.000000,4.000000,4.000000,4.000000,4.000000,4.000000,4.000000,4.000000,4.000000,4.000000,2.000000,83.333336,,,,,,,,,,,,,,,,,,,,,,,,,,,,,,,,,,,,,,,,,,,,,,,,,,,,,,,,,,,,,,,,,,,,,,,,,,,,,,,,,,,,,,,,,,,,,,,,,,,,,,,,,,,,,,,,,,,,,,,,,,,,,,,
1598857036.372013,126.000000,0.000000,4216.794922,4210.897461,4200.000000,4203.205078,4216.025879,4205.128418,4215.897461,4206.282227,4215.256348,4209.358887,4228.589844,4229.871582,4217.820313,4218.974121,3550.000000,2.000000,,,,0.000000,4.000000,4.000000,4.000000,4.000000,4.000000,4.000000,4.000000,4.000000,4.000000,4.000000,4.000000,4.000000,4.000000,2.000000,83.333336,63.000000,0.000000,8203.000000,8143.000000,8208.000000,4418.000000,8662.000000,9209.000000,8555.000000,7827.000000,7788.000000,,,,,,,,,,,,,,,,,,,,,,,,,,,,,,,,,,,,,,,,,,,,,,,,,,,,,,,,,,,,,,,,,,,,,,,,,,,,,,,,,,,,,,,,,,,,,,,,,,,,,,,,,,,,,,,,,,,,
1598857036.379895,127.000000,0.000000,4202.179688,4208.589844,4197.692383,4200.000000,4218.717773,4208.589844,4218.205078,4204.230957,4205.384766,4211.410156,4226.794922,4220.384766,4211.153809,4214.871582,50.000000,2.000000,,,,0.000000,4.000000,4.000000,4.000000,4.000000,4.000000,4.000000,4.000000,4.000000,4.000000,4.000000,4.000000,4.000000,4.000000,2.000000,83.333336,,,,,,,,,,,,,,,,,,,,,,,,,,,,,,,,,,,,,,,,,,,,,,,,,,,,,,,,,,,,,,,,,,,,,,,,,,,,,,,,,,,,,,,,,,,,,,,,,,,,,,,,,,,,,,,,,,,,,,,,,,,,,,,
1598857036.387677,0.000000,0.000000,4195.384766,4214.871582,4198.589844,4202.563965,4233.589844,4213.974121,4220.641113,4210.897461,4203.205078,4208.205078,4218.974121,4216.794922,4204.102539,4214.615234,3205.000000,2.000000,,,,0.000000,4.000000,4.000000,4.000000,4.000000,4.000000,4.000000,4.000000,4.000000,4.000000,4.000000,4.000000,4.000000,4.000000,2.000000,83.333336,0.000000,0.000000,8199.000000,8152.000000,8200.000000,4430.000000,8689.000000,9212.000000,8553.000000,7832.000000,7793.000000,,,,,,,,,,,,,,,,,,,,,,,,,,,,,,,,,,,,,,,,,,,,,,,,,,,,,,,,,,,,,,,,,,,,,,,,,,,,,,,,,,,,,,,,,,,,,,,,,,,,,,,,,,,,,,,,,,,,
1598857036.395559,1.000000,0.000000,4197.948730,4213.589844,4198.974121,4201.410156,4235.641113,4214.487305,4218.333496,4220.000000,4216.666504,4198.589844,4215.769043,4218.846191,4205.641113,4212.692383,3309.000000,2.000000,,,,0.000000,4.000000,4.000000,4.000000,4.000000,4.000000,4.000000,4.000000,4.000000,4.000000,4.000000,4.000000,4.000000,4.000000,2.000000,83.333336,,,,,,,,,,,,,,,,,,,,,,,,,,,,,,,,,,,,,,,,,,,,,,,,,,,,,,,,,,,,,,,,,,,,,,,,,,,,,,,,,,,,,,,,,,,,,,,,,,,,,,,,,,,,,,,,,,,,,,,,,,,,,,,
1598857036.403441,2.000000,0.000000,4194.871582,4205.512695,4201.410156,4198.717773,4222.948730,4208.333496,4217.307617,4220.384766,4223.205078,4199.871582,4218.974121,4216.794922,4209.102539,4211.025879,3571.000000,2.000000,,,,0.000000,4.000000,4.000000,4.000000,4.000000,4.000000,4.000000,4.000000,4.000000,4.000000,4.000000,4.000000,4.000000,4.000000,2.000000,83.333336,1.000000,0.000000,8194.000000,8155.000000,8200.000000,4451.000000,8675.000000,9207.000000,8557.000000,7831.000000,7793.000000,,,,,,,,,,,,,,,,,,,,,,,,,,,,,,,,,,,,,,,,,,,,,,,,,,,,,,,,,,,,,,,,,,,,,,,,,,,,,,,,,,,,,,,,,,,,,,,,,,,,,,,,,,,,,,,,,,,,
1598857036.411323,3.000000,0.000000,4186.666504,4204.358887,4206.794922,4198.717773,4224.230957,4203.974121,4217.436035,4216.282227,4213.077148,4207.692383,4214.743652,4209.358887,4199.102539,4211.922852,3547.000000,2.000000,,,,0.000000,4.000000,4.000000,4.000000,4.000000,4.000000,4.000000,4.000000,4.000000,4.000000,4.000000,4.000000,4.000000,4.000000,2.000000,83.333336,,,,,,,,,,,,,,,,,,,,,,,,,,,,,,,,,,,,,,,,,,,,,,,,,,,,,,,,,,,,,,,,,,,,,,,,,,,,,,,,,,,,,,,,,,,,,,,,,,,,,,,,,,,,,,,,,,,,,,,,,,,,,,,
1598857036.419205,4.000000,0.000000,4189.487305,4215.641113,4213.205078,4204.615234,4232.948730,4205.384766,4219.358887,4225.769043,4215.384766,4218.846191,4217.179688,4213.333496,4199.102539,4215.384766,1697.000000,2.000000,,,,0.000000,4.000000,4.000000,4.000000,4.000000,4.000000,4.000000,4.000000,4.000000,4.000000,4.000000,4.000000,4.000000,4.000000,2.000000,83.333336,2.000000,0.000000,8189.000000,8147.000000,8203.000000,4466.000000,8728.000000,9218.000000,8560.000000,7831.000000,7790.000000,,,,,,,,,,,,,,,,,,,,,,,,,,,,,,,,,,,,,,,,,,,,,,,,,,,,,,,,,,,,,,,,,,,,,,,,,,,,,,,,,,,,,,,,,,,,,,,,,,,,,,,,,,,,,,,,,,,,
1598857036.427087,5.000000,0.000000,4195.512695,4217.436035,4217.692383,4207.948730,4235.769043,4207.307617,4219.358887,4237.948730,4228.589844,4216.410156,4230.256348,4221.922852,4218.461426,4219.743652,3477.000000,2.000000,,,,0.000000,4.000000,4.000000,4.000000,4.000000,4.000000,4.000000,4.000000,4.000000,4.000000,4.000000,4.000000,4.000000,4.000000,2.000000,83.333336,,,,,,,,,,,,,,,,,,,,,,,,,,,,,,,,,,,,,,,,,,,,,,,,,,,,,,,,,,,,,,,,,,,,,,,,,,,,,,,,,,,,,,,,,,,,,,,,,,,,,,,,,,,,,,,,,,,,,,,,,,,,,,,
1598857036.434969,6.000000,0.000000,4197.307617,4207.307617,4220.769043,4201.538574,4239.615234,4210.128418,4216.538574,4242.436035,4237.563965,4216.025879,4235.128418,4227.436035,4231.794922,4222.179688,3578.000000,2.000000,,,,0.000000,4.000000,4.000000,4.000000,4.000000,4.000000,4.000000,4.000000,4.000000,4.000000,4.000000,4.000000,4.000000,4.000000,2.000000,83.333336,3.000000,0.000000,8193.000000,8146.000000,8198.000000,4458.000000,8706.000000,9230.000000,8559.000000,7830.000000,7790.000000,,,,,,,,,,,,,,,,,,,,,,,,,,,,,,,,,,,,,,,,,,,,,,,,,,,,,,,,,,,,,,,,,,,,,,,,,,,,,,,,,,,,,,,,,,,,,,,,,,,,,,,,,,,,,,,,,,,,
1598857036.442850,7.000000,0.000000,4206.282227,4212.563965,4229.615234,4202.820313,4238.974121,4216.538574,4217.948730,4249.230957,4241.410156,4236.025879,4232.563965,4241.282227,4240.256348,4225.641113,2916.000000,2.000000,,,,0.000000,4.000000,4.000000,4.000000,4.000000,4.000000,4.000000,4.000000,4.000000,4.000000,4.000000,4.000000,4.000000,4.000000,2.000000,83.333336,,,,,,,,,,,,,,,,,,,,,,,,,,,,,,,,,,,,,,,,,,,,,,,,,,,,,,,,,,,,,,,,,,,,,,,,,,,,,,,,,,,,,,,,,,,,,,,,,,,,,,,,,,,,,,,,,,,,,,,,,,,,,,,
1598857036.450732,8.000000,0.000000,4216.794922,4230.384766,4238.846191,4213.589844,4232.563965,4217.692383,4220.512695,4252.179688,4236.153809,4247.051270,4234.230957,4251.153809,4250.256348,4228.077148,3551.000000,2.000000,,,,0.000000,4.000000,4.000000,4.000000,4.000000,4.000000,4.000000,4.000000,4.000000,4.000000,4.000000,4.000000,4.000000,4.000000,2.000000,83.333336,4.000000,0.000000,8194.000000,8131.000000,8199.000000,4468.000000,8708.000000,9227.000000,8558.000000,7833.000000,7790.000000,,,,,,,,,,,,,,,,,,,,,,,,,,,,,,,,,,,,,,,,,,,,,,,16.822334,1.852013,1.211270,1.648542,0.157217,6.593219,1.049793,0.607007,1.227419,0.235321,2.914031,0.647762,0.332872,0.887192,0.203562,1.547938,0.638415,0.622427,0.754050,0.267240,3.549365,3.087106,2.418927,1.517417,0.723501,1.095866,1.597562,0.656525,0.344784,0.122060,1.192024,0.469189,0.981434,0.652467,0.086067,2.436523,1.653995,1.203757,0.844048,0.159154,4.752178,3.593504,2.108179,1.077797,0.222961,3.212460,4.834836,2.101711,0.788363,0.603128,0.460864,0.750326,0.331887,0.441521,0.080124,2.385301,1.243744,0.460850,1.852707,0.185813,4.686710,3.942280,1.739709,1.561231,0.155314,1.615024,0.269361,0.137307,0.263597,0.054978
1598857036.458513,9.000000,0.000000,4212.307617,4233.205078,4238.205078,4216.410156,4228.589844,4208.461426,4217.051270,4241.666504,4222.948730,4233.717773,4236.282227,4241.410156,4244.487305,4224.102539,3596.000000,2.000000,,,,0.000000,4.000000,4.000000,4.000000,4.000000,4.000000,4.000000,4.000000,4.000000,4.000000,4.000000,4.000000,4.000000,4.000000,2.000000,83.333336,,,,,,,,,,,,,,,,,,,,,,,,,,,,,,,,,,,,,,,,,,,,,,,,,,,,,,,,,,,,,,,,,,,,,,,,,,,,,,,,,,,,,,,,,,,,,,,,,,,,,,,,,,,,,,,,,,,,,,,,,,,,,,,
1598857036.466394,10.000000,0.000000,4196.282227,4221.410156,4227.948730,4211.538574,4231.282227,4200.256348,4212.436035,4227.307617,4209.102539,4217.436035,4228.205078,4227.436035,4222.051270,4217.307617,3545.000000,2.000000,,,,0.000000,4.000000,4.000000,4.000000,4.000000,4.000000,4.000000,4.000000,4.000000,4.000000,4.000000,4.000000,4.000000,4.000000,2.000000,83.333336,5.000000,0.000000,8201.000000,8125.000000,8193.000000,4464.000000,8657.000000,9228.000000,8554.000000,7837.000000,7790.000000,,,,,,,,,,,,,,,,,,,,,,,,,,,,,,,,,,,,,,,,,,,,,,,,,,,,,,,,,,,,,,,,,,,,,,,,,,,,,,,,,,,,,,,,,,,,,,,,,,,,,,,,,,,,,,,,,,,,
1598857036.474175,11.000000,0.000000,4193.205078,4216.922852,4223.717773,4208.974121,4232.051270,4206.282227,4215.256348,4228.461426,4210.000000,4209.743652,4221.025879,4226.410156,4210.000000,4218.077148,748.000000,2.000000,,,,0.000000,4.000000,4.000000,4.000000,4.000000,4.000000,4.000000,4.000000,4.000000,4.000000,4.000000,4.000000,4.000000,4.000000,2.000000,83.333336,,,,,,,,,,,,,,,,,,,,,,,,,,,,,,,,,,,,,,,,,,,,,,,,,,,,,,,,,,,,,,,,,,,,,,,,,,,,,,,,,,,,,,,,,,,,,,,,,,,,,,,,,,,,,,,,,,,,,,,,,,,,,,,
1598857036.482055,12.000000,0.000000,4200.512695,4216.794922,4227.179688,4204.615234,4232.179688,4218.077148,4218.333496,4241.025879,4221.025879,4208.461426,4223.333496,4228.846191,4215.512695,4219.230957,1716.000000,2.000000,,,,0.000000,4.000000,4.000000,4.000000,4.000000,4.000000,4.000000,4.000000,4.000000,4.000000,4.000000,4.000000,4.000000,4.000000,2.000000,83.333336,6.000000,0.000000,8215.000000,8107.000000,8196.000000,4455.000000,8658.000000,9220.000000,8557.000000,7833.000000,7792.000000,,,,,,,,,,,,,,,,,,,,,,,,,,,,,,,,,,,,,,,,,,,,,,,,,,,,,,,,,,,,,,,,,,,,,,,,,,,,,,,,,,,,,,,,,,,,,,,,,,,,,,,,,,,,,,,,,,,,
1598857036.489936,13.000000,0.000000,4194.102539,4214.358887,4222.307617,4201.025879,4233.077148,4218.205078,4217.051270,4247.948730,4227.948730,4209.487305,4224.871582,4224.871582,4217.436035,4216.025879,3445.000000,2.000000,,,,0.000000,4.000000,4.000000,4.000000,4.000000,4.000000,4.000000,4.000000,4.000000,4.000000,4.000000,4.000000,4.000000,4.000000,2.000000,83.333336,,,,,,,,,,,,,,,,,,,,,,,,,,,,,,,,,,,,,,,,,,,,,,,,,,,,,,,,,,,,,,,,,,,,,,,,,,,,,,,,,,,,,,,,,,,,,,,,,,,,,,,,,,,,,,,,,,,,,,,,,,,,,,,
1598857036.497717,14.000000,0.000000,4184.871582,4212.948730,4214.615234,4206.153809,4231.538574,4217.179688,4224.102539,4246.922852,4226.410156,4213.333496,4222.051270,4219.102539,4213.974121,4211.410156,3545.000000,2.000000,,,,0.000000,4.000000,4.000000,4.000000,4.000000,4.000000,4.000000,4.000000,4.000000,4.000000,4.000000,4.000000,4.000000,4.000000,2.000000,83.333336,7.000000,0.000000,8217.000000,8109.000000,8201.000000,4454.000000,8684.000000,9242.000000,8558.000000,7829.000000,7794.000000,,,,,,,,,,,,,,,,,,,,,,,,,,,,,,,,,,,,,,,,,,,,,,,,,,,,,,,,,,,,,,,,,,,,,,,,,,,,,,,,,,,,,,,,,,,,,,,,,,,,,,,,,,,,,,,,,,,,
1598857036.505598,15.000000,0.000000,4183.205078,4203.717773,4216.153809,4200.128418,4225.769043,4218.589844,4228.461426,4245.384766,4221.794922,4217.948730,4220.641113,4213.846191,4207.179688,4212.692383,748.000000,2.000000,,,,0.000000,4.000000,4.000000,4.000000,4.000000,4.000000,4.000000,4.000000,4.000000,4.000000,4.000000,4.000000,4.000000,4.000000,2.000000,83.333336,,,,,,,,,,,,,,,,,,,,,,,,,,,,,,,,,,,,,,,,,,,,,,,,,,,,,,,,,,,,,,,,,,,,,,,,,,,,,,,,,,,,,,,,,,,,,,,,,,,,,,,,,,,,,,,,,,,,,,,,,,,,,,,
1598857036.513480,16.000000,0.000000,4182.692383,4191.025879,4217.563965,4185.897461,4213.974121,4215.641113,4219.230957,4244.871582,4218.846191,4216.153809,4219.230957,4212.948730,4201.794922,4213.205078,0.000000,2.000000,,,,0.000000,4.000000,4.000000,4.000000,4.000000,4.000000,4.000000,4.000000,4.000000,4.000000,4.000000,4.000000,4.000000,4.000000,2.000000,83.333336,8.000000,0.000000,8218.000000,8100.000000,8198.000000,4455.000000,8676.000000,9230.000000,8559.000000,7827.000000,7791.000000,,,,,,,,,,,,,,,,,,,,,,,,,,,,,,,,,,,,,,,,,,,,,,,,,,,,,,,,,,,,,,,,,,,,,,,,,,,,,,,,,,,,,,,,,,,,,,,,,,,,,,,,,,,,,,,,,,,,
1598857036.521361,17.000000,0.000000,4183.205078,4196.153809,4216.282227,4186.794922,4213.846191,4213.205078,4219.358887,4242.820313,4219.743652,4209.871582,4214.358887,4215.897461,4205.641113,4213.461426,0.000000,2.000000,,,,0.000000,4.000000,4.000000,4.000000,4.000000,4.000000,4.000000,4.000000,4.000000,4.000000,4.000000,4.000000,4.000000,4.000000,2.000000,83.333336,,,,,,,,,,,,,,,,,,,,,,,,,,,,,,,,,,,,,,,,,,,,,,,,,,,,,,,,,,,,,,,,,,,,,,,,,,,,,,,,,,,,,,,,,,,,,,,,,,,,,,,,,,,,,,,,,,,,,,,,,,,,,,,
1598857036.529143,18.000000,0.000000,4194.102539,4206.153809,4224.871582,4199.615234,4226.538574,4217.307617,4231.538574,4246.025879,4228.461426,4215.769043,4219.743652,4224.871582,4217.692383,4216.153809,0.000000,2.000000,,,,0.000000,4.000000,4.000000,4.000000,4.000000,4.000000,4.000000,4.000000,4.000000,4.000000,4.000000,4.000000,4.000000,4.000000,2.000000,83.333336,9.000000,0.000000,8220.000000,8101.000000,8202.000000,4435.000000,8662.000000,9217.000000,8552.000000,7833.000000,7789.000000,,,,,,,,,,,,,,,,,,,,,,,,,,,,,,,,,,,,,,,,,,,,,,,,,,,,,,,,,,,,,,,,,,,,,,,,,,,,,,,,,,,,,,,,,,,,,,,,,,,,,,,,,,,,,,,,,,,,
1598857036.537025,19.000000,0.000000,4209.358887,4208.077148,4237.436035,4205.897461,4231.153809,4222.179688,4227.948730,4255.384766,4238.077148,4227.179688,4232.820313,4240.000000,4230.128418,4222.051270,0.000000,2.000000,,,,0.000000,4.000000,4.000000,4.000000,4.000000,4.000000,4.000000,4.000000,4.000000,4.000000,4.000000,4.000000,4.000000,4.000000,2.000000,83.333336,,,,,,,,,,,,,,,,,,,,,,,,,,,,,,,,,,,,,,,,,,,,,,,,,,,,,,,,,,,,,,,,,,,,,,,,,,,,,,,,,,,,,,,,,,,,,,,,,,,,,,,,,,,,,,,,,,,,,,,,,,,,,,,
1598857036.544906,20.000000,0.000000,4214.743652,4212.692383,4241.025879,4201.538574,4225.256348,4213.717773,4212.948730,4255.641113,4241.538574,4231.025879,4235.256348,4247.948730,4241.410156,4221.922852,0.000000,2.000000,,,,0.000000,4.000000,4.000000,4.000000,4.000000,4.000000,4.000000,4.000000,4.000000,4.000000,4.000000,4.000000,4.000000,4.000000,2.000000,83.333336,10.000000,0.000000,8214.000000,8111.000000,8204.000000,4434.000000,8648.000000,9225.000000,8554.000000,7822.000000,7789.000000,,,,,,,,,,,,,,,,,,,,,,,,,,,,,,,,,,,,,,,,,,,,,,,,,,,,,,,,,,,,,,,,,,,,,,,,,,,,,,,,,,,,,,,,,,,,,,,,,,,,,,,,,,,,,,,,,,,,
1598857036.552788,21.000000,0.000000,4217.307617,4221.794922,4246.666504,4200.897461,4227.692383,4203.717773,4213.461426,4249.102539,4239.230957,4240.769043,4234.358887,4255.256348,4250.384766,4222.563965,0.000000,2.000000,,,,0.000000,4.000000,4.000000,4.000000,4.000000,4.000000,4.000000,4.000000,4.000000,4.000000,4.000000,4.000000,4.000000,4.000000,2.000000,83.333336,,,,,,,,,,,,,,,,,,,,,,,,,,,,,,,,,,,,,,,,,,,,,,,,,,,,,,,,,,,,,,,,,,,,,,,,,,,,,,,,,,,,,,,,,,,,,,,,,,,,,,,,,,,,,,,,,,,,,,,,,,,,,,,
1598857036.560670,22.000000,0.000000,4222.051270,4226.666504,4254.871582,4209.230957,4235.128418,4204.358887,4217.692383,4248.974121,4236.538574,4251.922852,4235.897461,4263.974121,4246.666504,4228.974121,0.000000,2.000000,,,,0.000000,4.000000,4.000000,4.000000,4.000000,4.000000,4.000000,4.000000,4.000000,4.000000,4.000000,4.000000,4.000000,4.000000,2.000000,83.333336,11.000000,0.000000,8214.000000,8110.000000,8204.000000,4451.000000,8673.000000,9226.000000,8559.000000,7832.000000,7793.000000,,,,,,,,,,,,,,,,,,,,,,,,,,,,,,,,,,,,,,,,,,,,,,,,,,,,,,,,,,,,,,,,,,,,,,,,,,,,,,,,,,,,,,,,,,,,,,,,,,,,,,,,,,,,,,,,,,,,
1598857036.568552,23.000000,0.000000,4218.589844,4229.743652,4251.282227,4219.487305,4226.794922,4207.563965,4213.974121,4248.461426,4233.974121,4236.922852,4233.077148,4257.179688,4235.384766,4226.282227,0.000000,2.000000,,,,0.000000,4.000000,4.000000,4.000000,4.000000,4.000000,4.000000,4.000000,4.000000,4.000000,4.000000,4.000000,4.000000,4.000000,2.000000,83.333336,,,,,,,,,,,,,,,,,,,,,,,,,,,,,,,,,,,,,,,,,,,,,,,,,,,,,,,,,,,,,,,,,,,,,,,,,,,,,,,,,,,,,,,,,,,,,,,,,,,,,,,,,,,,,,,,,,,,,,,,,,,,,,,
1598857036.576434,24.000000,0.000000,4206.922852,4226.794922,4238.974121,4216.538574,4222.051270,4202.948730,4213.077148,4240.128418,4223.589844,4213.589844,4222.563965,4236.922852,4221.666504,4218.974121,0.000000,2.000000,,,,0.000000,4.000000,4.000000,4.000000,4.000000,4.000000,4.000000,4.000000,4.000000,4.000000,4.000000,4.000000,4.000000,4.000000,2.000000,83.333336,12.000000,0.000000,8210.000000,8111.000000,8198.000000,4435.000000,8663.000000,9223.000000,8557.000000,7831.000000,7790.000000,,,,,,,,,,,,,,,,,,,,,,,,,,,,,,,,,,,,,,,,,,,,,,,15.853752,1.889081,1.152936,1.658887,0.161880,6.696885,1.050627,0.640207,1.060892,0.241397,3.407900,0.631406,0.331025,0.922845,0.190753,1.807292,0.613233,0.645368,0.703652,0.246068,3.445278,3.267131,2.831978,1.758083,0.708705,1.089658,1.875753,0.697795,0.311690,0.127881,1.311306,0.524239,0.937811,0.677784,0.095997,2.457293,1.508793,1.237337,0.752995,0.166826,4.584340,3.507070,2.259634,0.979896,0.221821,2.988499,5.349710,2.097488,0.850747,0.662667,0.441025,0.927376,0.258091,0.428451,0.086216,2.500378,1.432860,0.345764,1.837399,0.203275,4.450660,4.944780,1.676540,1.553709,0.155889,1.552282,0.323543,0.129410,0.258232,0.054987
1598857036.584316,25.000000,0.000000,4198.717773,4216.282227,4227.051270,4201.025879,4231.922852,4203.717773,4211.922852,4228.333496,4209.615234,4211.922852,4214.743652,4219.871582,4207.820313,4217.563965,0.000000,2.000000,,,,0.000000,4.000000,4.000000,4.000000,4.000000,4.000000,4.000000,4.000000,4.000000,4.000000,4.000000,4.000000,4.000000,4.000000,2.000000,83.333336,,,,,,,,,,,,,,,,,,,,,,,,,,,,,,,,,,,,,,,,,,,,,,,,,,,,,,,,,,,,,,,,,,,,,,,,,,,,,,,,,,,,,,,,,,,,,,,,,,,,,,,,,,,,,,,,,,,,,,,,,,,,,,,
1598857036.592198,26.000000,0.000000,4193.846191,4213.077148,4224.615234,4194.615234,4237.563965,4211.153809,4209.358887,4221.410156,4208.205078,4217.307617,4217.307617,4217.436035,4207.307617,4218.205078,0.000000,2.000000,,,,0.000000,4.000000,4.000000,4.000000,4.000000,4.000000,4.000000,4.000000,4.000000,4.000000,4.000000,4.000000,4.000000,4.000000,2.000000,83.333336,13.000000,0.000000,8210.000000,8118.000000,8197.000000,4462.000000,8678.000000,9231.000000,8555.000000,7831.000000,7790.000000,,,,,,,,,,,,,,,,,,,,,,,,,,,,,,,,,,,,,,,,,,,,,,,,,,,,,,,,,,,,,,,,,,,,,,,,,,,,,,,,,,,,,,,,,,,,,,,,,,,,,,,,,,,,,,,,,,,,
1598857036.599978,27.000000,0.000000,4189.615234,4213.077148,4225.000000,4198.974121,4238.205078,4207.436035,4209.102539,4222.436035,4218.589844,4212.820313,4224.102539,4221.922852,4214.487305,4217.692383,0.000000,2.000000,,,,0.000000,4.000000,4.000000,4.000000,4.000000,4.000000,4.000000,4.000000,4.000000,4.000000,4.000000,4.000000,4.000000,4.000000,2.000000,83.333336,,,,,,,,,,,,,,,,,,,,,,,,,,,,,,,,,,,,,,,,,,,,,,,,,,,,,,,,,,,,,,,,,,,,,,,,,,,,,,,,,,,,,,,,,,,,,,,,,,,,,,,,,,,,,,,,,,,,,,,,,,,,,,,
1598857036.607859,28.000000,0.000000,4192.436035,4209.871582,4222.436035,4200.512695,4242.307617,4206.922852,4217.307617,4228.333496,4221.794922,4209.871582,4228.589844,4228.589844,4219.487305,4220.897461,0.000000,2.000000,,,,0.000000,4.000000,4.000000,4.000000,4.000000,4.000000,4.000000,4.000000,4.000000,4.000000,4.000000,4.000000,4.000000,4.000000,2.000000,83.333336,14.000000,0.000000,8202.000000,8105.000000,8199.000000,4450.000000,8667.000000,9233.000000,8555.000000,7830.000000,7793.000000,,,,,,,,,,,,,,,,,,,,,,,,,,,,,,,,,,,,,,,,,,,,,,,,,,,,,,,,,,,,,,,,,,,,,,,,,,,,,,,,,,,,,,,,,,,,,,,,,,,,,,,,,,,,,,,,,,,,
1598857036.615641,29.000000,0.000000,4200.512695,4212.307617,4226.025879,4200.384766,4232.563965,4217.436035,4226.794922,4231.922852,4223.717773,4215.384766,4230.897461,4236.538574,4226.666504,4222.820313,0.000000,2.000000,,,,0.000000,4.000000,4.000000,4.000000,4.000000,4.000000,4.000000,4.000000,4.000000,4.000000,4.000000,4.000000,4.000000,4.000000,2.000000,83.333336,,,,,,,,,,,,,,,,,,,,,,,,,,,,,,,,,,,,,,,,,,,,,,,,,,,,,,,,,,,,,,,,,,,,,,,,,,,,,,,,,,,,,,,,,,,,,,,,,,,,,,,,,,,,,,,,,,,,,,,,,,,,,,,
1598857036.623523,30.000000,0.000000,4208.077148,4217.692383,4233.846191,4209.487305,4220.128418,4218.974121,4223.205078,4230.384766,4226.025879,4228.077148,4231.666504,4239.230957,4233.461426,4222.179688,0.000000,2.000000,,,,0.000000,4.000000,4.000000,4.000000,4.000000,4.000000,4.000000,4.000000,4.000000,4.000000,4.000000,4.000000,4.000000,4.000000,2.000000,83.333336,15.000000,0.000000,8206.000000,8109.000000,8207.000000,4443.000000,8693.000000,9248.000000,8556.000000,7828.000000,7792.000000,,,,,,,,,,,,,,,,,,,,,,,,,,,,,,,,,,,,,,,,,,,,,,,,,,,,,,,,,,,,,,,,,,,,,,,,,,,,,,,,,,,,,,,,,,,,,,,,,,,,,,,,,,,,,,,,,,,,
1598857036.631405,31.000000,0.000000,4214.871582,4220.000000,4233.717773,4217.307617,4228.846191,4215.897461,4213.717773,4226.922852,4221.538574,4240.128418,4230.641113,4236.025879,4231.922852,4220.897461,0.000000,2.000000,,,,0.000000,4.000000,4.000000,4.000000,4.000000,4.000000,4.000000,4.000000,4.000000,4.000000,4.000000,4.000000,4.000000,4.000000,2.000000,83.333336,,,,,,,,,,,,,,,,,,,,,,,,,,,,,,,,,,,,,,,,,,,,,,,,,,,,,,,,,,,,,,,,,,,,,,,,,,,,,,,,,,,,,,,,,,,,,,,,,,,,,,,,,,,,,,,,,,,,,,,,,,,,,,,
1598857036.639287,32.000000,0.000000,4215.384766,4218.333496,4230.769043,4208.461426,4240.384766,4221.794922,4213.974121,4229.615234,4222.051270,4233.205078,4231.538574,4235.256348,4231.922852,4221.025879,0.000000,2.000000,,,,0.000000,4.000000,4.000000,4.000000,4.000000,4.000000,4.000000,4.000000,4.000000,4.000000,4.000000,4.000000,4.000000,4.000000,2.000000,83.333336,16.000000,0.000000,8211.000000,8119.000000,8204.000000,4436.000000,8694.000000,9252.000000,8559.000000,7829.000000,7791.000000,,,,,,,,,,,,,,,,,,,,,,,,,,,,,,,,,,,,,,,,,,,,,,,,,,,,,,,,,,,,,,,,,,,,,,,,,,,,,,,,,,,,,,,,,,,,,,,,,,,,,,,,,,,,,,,,,,,,
1598857036.647169,33.000000,0.000000,4213.077148,4219.743652,4231.025879,4200.512695,4237.820313,4225.256348,4220.128418,4239.102539,4235.384766,4220.256348,4232.051270,4235.128418,4234.743652,4220.256348,0.000000,2.000000,,,,0.000000,4.000000,4.000000,4.000000,4.000000,4.000000,4.000000,4.000000,4.000000,4.000000,4.000000,4.000000,4.000000,4.000000,2.000000,83.333336,,,,,,,,,,,,,,,,,,,,,,,,,,,,,,,,,,,,,,,,,,,,,,,,,,,,,,,,,,,,,,,,,,,,,,,,,,,,,,,,,,,,,,,,,,,,,,,,,,,,,,,,,,,,,,,,,,,,,,,,,,,,,,,
1598857036.655051,34.000000,0.000000,4213.205078,4223.717773,4226.794922,4203.589844,4238.077148,4219.743652,4219.871582,4242.436035,4240.897461,4226.922852,4230.641113,4232.820313,4229.487305,4222.820313,0.000000,2.000000,,,,0.000000,4.000000,4.000000,4.000000,4.000000,4.000000,4.000000,4.000000,4.000000,4.000000,4.000000,4.000000,4.000000,4.000000,2.000000,83.333336,17.000000,0.000000,8211.000000,8111.000000,8203.000000,4460.000000,8676.000000,9241.000000,8555.000000,7814.000000,7793.000000,,,,,,,,,,,,,,,,,,,,,,,,,,,,,,,,,,,,,,,,,,,,,,,,,,,,,,,,,,,,,,,,,,,,,,,,,,,,,,,,,,,,,,,,,,,,,,,,,,,,,,,,,,,,,,,,,,,,
1598857036.662932,35.000000,0.000000,4206.794922,4214.871582,4221.538574,4205.512695,4237.692383,4220.384766,4217.948730,4235.769043,4229.615234,4235.128418,4228.717773,4231.153809,4225.128418,4221.666504,0.000000,2.000000,,,,0.000000,4.000000,4.000000,4.000000,4.000000,4.000000,4.000000,4.000000,4.000000,4.000000,4.000000,4.000000,4.000000,4.000000,2.000000,83.333336,,,,,,,,,,,,,,,,,,,,,,,,,,,,,,,,,,,,,,,,,,,,,,,,,,,,,,,,,,,,,,,,,,,,,,,,,,,,,,,,,,,,,,,,,,,,,,,,,,,,,,,,,,,,,,,,,,,,,,,,,,,,,,,
1598857036.670814,36.000000,0.000000,4198.589844,4198.717773,4219.743652,4200.512695,4225.384766,4218.974121,4215.512695,4224.871582,4221.153809,4229.615234,4224.487305,4225.512695,4226.025879,4215.641113,0.000000,2.000000,,,,0.000000,4.000000,4.000000,4.000000,4.000000,4.000000,4.000000,4.000000,4.000000,4.000000,4.000000,4.000000,4.000000,4.000000,2.000000,83.333336,18.000000,0.000000,8214.000000,8104.000000,8211.000000,4455.000000,8682.000000,9241.000000,8553.000000,7827.000000,7791.000000,,,,,,,,,,,,,,,,,,,,,,,,,,,,,,,,,,,,,,,,,,,,,,,,,,,,,,,,,,,,,,,,,,,,,,,,,,,,,,,,,,,,,,,,,,,,,,,,,,,,,,,,,,,,,,,,,,,,
1598857036.678696,37.000000,0.000000,4203.461426,4204.230957,4215.641113,4199.102539,4222.051270,4216.410156,4212.051270,4216.922852,4225.769043,4230.128418,4221.922852,4221.538574,4226.282227,4212.948730,0.000000,2.000000,,,,0.000000,4.000000,4.000000,4.000000,4.000000,4.000000,4.000000,4.000000,4.000000,4.000000,4.000000,4.000000,4.000000,4.000000,2.000000,83.333336,,,,,,,,,,,,,,,,,,,,,,,,,,,,,,,,,,,,,,,,,,,,,,,,,,,,,,,,,,,,,,,,,,,,,,,,,,,,,,,,,,,,,,,,,,,,,,,,,,,,,,,,,,,,,,,,,,,,,,,,,,,,,,,
1598857036.686478,38.000000,0.000000,4213.974121,4221.282227,4214.487305,4207.179688,4234.102539,4223.077148,4214.487305,4221.794922,4238.461426,4236.666504,4226.794922,4231.153809,4227.563965,4219.487305,0.000000,2.000000,,,,0.000000,4.000000,4.000000,4.000000,4.000000,4.000000,4.000000,4.000000,4.000000,4.000000,4.000000,4.000000,4.000000,4.000000,2.000000,83.333336,19.000000,0.000000,8203.000000,8113.000000,8197.000000,4464.000000,8685.000000,9257.000000,8555.000000,7826.000000,7792.000000,,,,,,,,,,,,,,,,,,,,,,,,,,,,,,,,,,,,,,,,,,,,,,,,,,,,,,,,,,,,,,,,,,,,,,,,,,,,,,,,,,,,,,,,,,,,,,,,,,,,,,,,,,,,,,,,,,,,
1598857036.694360,39.000000,0.000000,4216.794922,4220.128418,4222.307617,4215.256348,4235.000000,4226.538574,4216.666504,4235.128418,4244.230957,4234.487305,4231.666504,4237.948730,4232.948730,4220.512695,0.000000,2.000000,,,,0.000000,4.000000,4.000000,4.000000,4.000000,4.000000,4.000000,4.000000,4.000000,4.000000,4.000000,4.000000,4.000000,4.000000,2.000000,83.333336,,,,,,,,,,,,,,,,,,,,,,,,,,,,,,,,,,,,,,,,,,,,,,,,,,,,,,,,,,,,,,,,,,,,,,,,,,,,,,,,,,,,,,,,,,,,,,,,,,,,,,,,,,,,,,,,,,,,,,,,,,,,,,,
1598857036.702242,40.000000,0.000000,4212.307617,4215.512695,4229.743652,4216.666504,4229.102539,4222.692383,4215.897461,4239.743652,4235.512695,4232.307617,4231.153809,4234.230957,4240.128418,4218.205078,0.000000,2.000000,,,,0.000000,4.000000,4.000000,4.000000,4.000000,4.000000,4.000000,4.000000,4.000000,4.000000,4.000000,4.000000,4.000000,4.000000,2.000000,83.333336,20.000000,0.000000,8209.000000,8110.000000,8201.000000,4459.000000,8663.000000,9247.000000,8555.000000,7830.000000,7792.000000,,,,,,,,,,,,,,,,,,,,,,,,,,,,,,,,,,,,,,,,,,,,,,,13.080799,1.977649,1.049005,1.595896,0.167947,6.025901,1.130283,0.689957,0.881264,0.238592,3.549777,0.727219,0.383984,0.916576,0.174664,1.871524,0.623208,0.674230,0.624153,0.222350,3.116733,3.184930,2.953871,1.898654,0.666481,1.009050,2.000669,0.742293,0.281999,0.136784,1.335915,0.549113,0.871210,0.649964,0.111057,2.267048,1.290707,1.261137,0.612623,0.173434,4.025815,3.264948,2.294888,0.811048,0.218247,2.521121,5.612325,1.963589,0.935437,0.721677,0.402833,1.124185,0.219426,0.384495,0.097544,2.472378,1.838347,0.327232,1.662989,0.235446,3.811535,5.891490,1.629639,1.432562,0.163021,1.300348,0.380086,0.129513,0.234894,0.057978
1598857036.710124,41.000000,0.000000,4205.000000,4216.922852,4224.230957,4211.794922,4234.615234,4217.820313,4215.384766,4236.538574,4230.769043,4235.512695,4229.871582,4232.948730,4234.487305,4220.512695,0.000000,2.000000,,,,0.000000,4.000000,4.000000,4.000000,4.000000,4.000000,4.000000,4.000000,4.000000,4.000000,4.000000,4.000000,4.000000,4.000000,2.000000,83.333336,,,,,,,,,,,,,,,,,,,,,,,,,,,,,,,,,,,,,,,,,,,,,,,,,,,,,,,,,,,,,,,,,,,,,,,,,,,,,,,,,,,,,,,,,,,,,,,,,,,,,,,,,,,,,,,,,,,,,,,,,,,,,,,
1598857036.718006,42.000000,0.000000,4200.384766,4211.410156,4217.051270,4204.871582,4231.410156,4209.487305,4212.692383,4233.333496,4232.307617,4236.666504,4228.205078,4232.179688,4221.538574,4221.794922,0.000000,2.000000,,,,0.000000,4.000000,4.000000,4.000000,4.000000,4.000000,4.000000,4.000000,4.000000,4.000000,4.000000,4.000000,4.000000,4.000000,2.000000,83.333336,21.000000,0.000000,8209.000000,8113.000000,8205.000000,4460.000000,8682.000000,9243.000000,8555.000000,7825.000000,7793.000000,,,,,,,,,,,,,,,,,,,,,,,,,,,,,,,,,,,,,,,,,,,,,,,,,,,,,,,,,,,,,,,,,,,,,,,,,,,,,,,,,,,,,,,,,,,,,,,,,,,,,,,,,,,,,,,,,,,,
1598857036.725888,43.000000,0.000000,4206.666504,4208.974121,4221.282227,4201.794922,4215.000000,4205.128418,4209.230957,4235.000000,4232.820313,4230.256348,4230.641113,4233.589844,4223.717773,4220.256348,0.000000,2.000000,,,,0.000000,4.000000,4.000000,4.000000,4.000000,4.000000,4.000000,4.000000,4.000000,4.000000,4.000000,4.000000,4.000000,4.000000,2.000000,83.333336,,,,,,,,,,,,,,,,,,,,,,,,,,,,,,,,,,,,,,,,,,,,,,,,,,,,,,,,,,,,,,,,,,,,,,,,,,,,,,,,,,,,,,,,,,,,,,,,,,,,,,,,,,,,,,,,,,,,,,,,,,,,,,,
1598857036.733769,44.000000,0.000000,4218.461426,4217.307617,4229.358887,4207.948730,4221.794922,4212.051270,4213.846191,4240.128418,4234.615234,4229.358887,4231.410156,4244.871582,4233.589844,4221.410156,0.000000,2.000000,,,,0.000000,4.000000,4.000000,4.000000,4.000000,4.000000,4.000000,4.000000,4.000000,4.000000,4.000000,4.000000,4.000000,4.000000,2.000000,83.333336,22.000000,0.000000,8208.000000,8106.000000,8207.000000,4468.000000,8671.000000,9223.000000,8556.000000,7831.000000,7790.000000,,,,,,,,,,,,,,,,,,,,,,,,,,,,,,,,,,,,,,,,,,,,,,,,,,,,,,,,,,,,,,,,,,,,,,,,,,,,,,,,,,,,,,,,,,,,,,,,,,,,,,,,,,,,,,,,,,,,
1598857036.741651,45.000000,0.000000,4221.410156,4221.666504,4232.179688,4212.692383,4238.077148,4216.666504,4219.615234,4239.102539,4231.666504,4239.615234,4228.333496,4247.436035,4232.948730,4223.205078,0.000000,2.000000,,,,0.000000,4.000000,4.000000,4.000000,4.000000,4.000000,4.000000,4.000000,4.000000,4.000000,4.000000,4.000000,4.000000,4.000000,2.000000,83.333336,,,,,,,,,,,,,,,,,,,,,,,,,,,,,,,,,,,,,,,,,,,,,,,,,,,,,,,,,,,,,,,,,,,,,,,,,,,,,,,,,,,,,,,,,,,,,,,,,,,,,,,,,,,,,,,,,,,,,,,,,,,,,,,
1598857036.749432,46.000000,0.000000,4213.717773,4216.153809,4226.282227,4205.384766,4227.563965,4215.128418,4216.794922,4230.128418,4227.692383,4235.256348,4227.820313,4234.487305,4226.538574,4217.436035,0.000000,2.000000,,,,0.000000,4.000000,4.000000,4.000000,4.000000,4.000000,4.000000,4.000000,4.000000,4.000000,4.000000,4.000000,4.000000,4.000000,2.000000,83.333336,23.000000,0.000000,8202.000000,8105.000000,8205.000000,4452.000000,8700.000000,9242.000000,8558.000000,7833.000000,7791.000000,,,,,,,,,,,,,,,,,,,,,,,,,,,,,,,,,,,,,,,,,,,,,,,,,,,,,,,,,,,,,,,,,,,,,,,,,,,,,,,,,,,,,,,,,,,,,,,,,,,,,,,,,,,,,,,,,,,,
1598857036.757313,47.000000,0.000000,4203.461426,4205.256348,4217.692383,4199.102539,4216.025879,4217.051270,4213.846191,4225.128418,4228.717773,4216.538574,4226.922852,4221.538574,4219.743652,4214.487305,0.000000,2.000000,,,,0.000000,4.000000,4.000000,4.000000,4.000000,4.000000,4.000000,4.000000,4.000000,4.000000,4.000000,4.000000,4.000000,4.000000,2.000000,83.333336,,,,,,,,,,,,,,,,,,,,,,,,,,,,,,,,,,,,,,,,,,,,,,,,,,,,,,,,,,,,,,,,,,,,,,,,,,,,,,,,,,,,,,,,,,,,,,,,,,,,,,,,,,,,,,,,,,,,,,,,,,,,,,,
1598857036.765095,48.000000,0.000000,4199.230957,4202.692383,4210.384766,4197.820313,4225.512695,4216.538574,4216.410156,4227.563965,4227.179688,4210.641113,4220.897461,4216.922852,4215.641113,4214.871582,0.000000,2.000000,,,,0.000000,4.000000,4.000000,4.000000,4.000000,4.000000,4.000000,4.000000,4.000000,4.000000,4.000000,4.000000,4.000000,4.000000,2.000000,83.333336,24.000000,0.000000,8200.000000,8107.000000,8210.000000,4440.000000,8696.000000,9244.000000,8558.000000,7827.000000,7792.000000,,,,,,,,,,,,,,,,,,,,,,,,,,,,,,,,,,,,,,,,,,,,,,,,,,,,,,,,,,,,,,,,,,,,,,,,,,,,,,,,,,,,,,,,,,,,,,,,,,,,,,,,,,,,,,,,,,,,
1598857036.772977,49.000000,0.000000,4197.436035,4212.948730,4206.282227,4200.128418,4219.230957,4213.205078,4218.077148,4228.589844,4220.384766,4215.897461,4221.538574,4214.615234,4218.461426,4215.384766,0.000000,2.000000,,,,0.000000,4.000000,4.000000,4.000000,4.000000,4.000000,4.000000,4.000000,4.000000,4.000000,4.000000,4.000000,4.000000,4.000000,2.000000,83.333336,,,,,,,,,,,,,,,,,,,,,,,,,,,,,,,,,,,,,,,,,,,,,,,,,,,,,,,,,,,,,,,,,,,,,,,,,,,,,,,,,,,,,,,,,,,,,,,,,,,,,,,,,,,,,,,,,,,,,,,,,,,,,,,
1598857036.780859,50.000000,0.000000,4198.333496,4217.820313,4206.282227,4206.666504,4205.256348,4216.666504,4215.384766,4224.230957,4218.461426,4223.717773,4223.205078,4216.794922,4215.897461,4212.436035,0.000000,2.000000,,,,0.000000,4.000000,4.000000,4.000000,4.000000,4.000000,4.000000,4.000000,4.000000,4.000000,4.000000,4.000000,4.000000,4.000000,2.000000,83.333336,25.000000,0.000000,8197.000000,8107.000000,8210.000000,4449.000000,8687.000000,9246.000000,8554.000000,7831.000000,7792.000000,,,,,,,,,,,,,,,,,,,,,,,,,,,,,,,,,,,,,,,,,,,,,,,,,,,,,,,,,,,,,,,,,,,,,,,,,,,,,,,,,,,,,,,,,,,,,,,,,,,,,,,,,,,,,,,,,,,,
1598857036.788740,51.000000,0.000000,4210.769043,4213.333496,4216.922852,4215.384766,4208.717773,4219.487305,4214.615234,4225.000000,4223.205078,4230.000000,4219.358887,4226.666504,4214.615234,4217.179688,0.000000,2.000000,,,,0.000000,4.000000,4.000000,4.000000,4.000000,4.000000,4.000000,4.000000,4.000000,4.000000,4.000000,4.000000,4.000000,4.000000,2.000000,83.333336,,,,,,,,,,,,,,,,,,,,,,,,,,,,,,,,,,,,,,,,,,,,,,,,,,,,,,,,,,,,,,,,,,,,,,,,,,,,,,,,,,,,,,,,,,,,,,,,,,,,,,,,,,,,,,,,,,,,,,,,,,,,,,,
1598857036.796622,52.000000,0.000000,4225.128418,4215.384766,4230.256348,4219.615234,4215.769043,4217.179688,4216.794922,4229.102539,4224.230957,4219.230957,4222.179688,4234.615234,4224.230957,4221.538574,0.000000,2.000000,,,,0.000000,4.000000,4.000000,4.000000,4.000000,4.000000,4.000000,4.000000,4.000000,4.000000,4.000000,4.000000,4.000000,4.000000,2.000000,83.333336,26.000000,0.000000,8189.000000,8114.000000,8198.000000,4436.000000,8694.000000,9251.000000,8557.000000,7829.000000,7793.000000,,,,,,,,,,,,,,,,,,,,,,,,,,,,,,,,,,,,,,,,,,,,,,,,,,,,,,,,,,,,,,,,,,,,,,,,,,,,,,,,,,,,,,,,,,,,,,,,,,,,,,,,,,,,,,,,,,,,
1598857036.804504,53.000000,0.000000,4223.717773,4219.230957,4226.666504,4213.461426,4249.102539,4214.358887,4215.000000,4220.897461,4221.922852,4199.230957,4226.794922,4233.846191,4218.846191,4217.436035,0.000000,2.000000,,,,0.000000,4.000000,4.000000,4.000000,4.000000,4.000000,4.000000,4.000000,4.000000,4.000000,4.000000,4.000000,4.000000,4.000000,2.000000,83.333336,,,,,,,,,,,,,,,,,,,,,,,,,,,,,,,,,,,,,,,,,,,,,,,,,,,,,,,,,,,,,,,,,,,,,,,,,,,,,,,,,,,,,,,,,,,,,,,,,,,,,,,,,,,,,,,,,,,,,,,,,,,,,,,
1598857036.812386,54.000000,0.000000,4215.000000,4214.230957,4215.641113,4204.230957,4283.846191,4210.512695,4211.794922,4206.922852,4212.307617,4198.846191,4218.333496,4226.666504,4206.025879,4211.538574,0.000000,2.000000,,,,0.000000,4.000000,4.000000,4.000000,4.000000,4.000000,4.000000,4.000000,4.000000,4.000000,4.000000,4.000000,4.000000,4.000000,2.000000,83.333336,27.000000,0.000000,8192.000000,8115.000000,8204.000000,4448.000000,8677.000000,9263.000000,8560.000000,7828.000000,7788.000000,,,,,,,,,,,,,,,,,,,,,,,,,,,,,,,,,,,,,,,,,,,,,,,,,,,,,,,,,,,,,,,,,,,,,,,,,,,,,,,,,,,,,,,,,,,,,,,,,,,,,,,,,,,,,,,,,,,,
1598857036.820268,55.000000,0.000000,4215.128418,4207.307617,4215.384766,4202.436035,4253.077148,4210.384766,4213.461426,4209.487305,4202.179688,4208.461426,4214.871582,4226.666504,4213.589844,4211.538574,0.000000,2.000000,,,,0.000000,4.000000,4.000000,4.000000,4.000000,4.000000,4.000000,4.000000,4.000000,4.000000,4.000000,4.000000,4.000000,4.000000,2.000000,83.333336,,,,,,,,,,,,,,,,,,,,,,,,,,,,,,,,,,,,,,,,,,,,,,,,,,,,,,,,,,,,,,,,,,,,,,,,,,,,,,,,,,,,,,,,,,,,,,,,,,,,,,,,,,,,,,,,,,,,,,,,,,,,,,,
1598857036.828150,56.000000,0.000000,4219.487305,4203.589844,4218.717773,4204.615234,4202.436035,4213.717773,4215.769043,4218.589844,4205.769043,4214.871582,4224.615234,4231.282227,4221.025879,4213.333496,0.000000,2.000000,,,,0.000000,4.000000,4.000000,4.000000,4.000000,4.000000,4.000000,4.000000,4.000000,4.000000,4.000000,4.000000,4.000000,4.000000,2.000000,83.333336,28.000000,0.000000,8193.000000,8119.000000,8195.000000,4456.000000,8707.000000,9260.000000,8556.000000,7829.000000,7789.000000,,,,,,,,,,,,,,,,,,,,,,,,,,,,,,,,,,,,,,,,,,,,,,,9.432279,2.241870,0.942187,1.473428,0.177805,4.800318,1.344077,0.765014,0.719689,0.232146,3.282883,0.974159,0.482135,0.865770,0.161405,1.729048,0.706442,0.722391,0.531706,0.206577,2.742638,2.885906,2.751247,1.915830,0.626115,0.858420,1.950648,0.769756,0.275336,0.149678,1.244402,0.538943,0.794359,0.586906,0.129800,1.936979,1.100848,1.232494,0.471566,0.181126,3.218604,3.010776,2.165480,0.636229,0.214357,1.908697,5.730608,1.727990,1.020104,0.773757,0.348302,1.317480,0.201897,0.322283,0.111344,2.273931,2.521892,0.368738,1.388385,0.281800,2.977100,6.671387,1.566069,1.253591,0.178011,0.948504,0.440713,0.134856,0.199943,0.064637
1598857036.835932,57.000000,0.000000,4218.461426,4200.384766,4217.820313,4200.128418,4203.461426,4211.794922,4213.333496,4216.922852,4212.692383,4216.922852,4225.000000,4228.205078,4213.205078,4215.384766,0.000000,2.000000,,,,0.000000,4.000000,4.000000,4.000000,4.000000,4.000000,4.000000,4.000000,4.000000,4.000000,4.000000,4.000000,4.000000,4.000000,2.000000,83.333336,,,,,,,,,,,,,,,,,,,,,,,,,,,,,,,,,,,,,,,,,,,,,,,,,,,,,,,,,,,,,,,,,,,,,,,,,,,,,,,,,,,,,,,,,,,,,,,,,,,,,,,,,,,,,,,,,,,,,,,,,,,,,,,
1598857036.843814,58.000000,0.000000,4216.410156,4203.461426,4218.717773,4201.282227,4216.538574,4212.436035,4212.307617,4216.410156,4214.615234,4213.461426,4221.282227,4230.256348,4217.307617,4219.615234,0.000000,2.000000,,,,0.000000,4.000000,4.000000,4.000000,4.000000,4.000000,4.000000,4.000000,4.000000,4.000000,4.000000,4.000000,4.000000,4.000000,2.000000,83.333336,29.000000,0.000000,8197.000000,8125.000000,8197.000000,4456.000000,8687.000000,9265.000000,8556.000000,7830.000000,7791.000000,,,,,,,,,,,,,,,,,,,,,,,,,,,,,,,,,,,,,,,,,,,,,,,,,,,,,,,,,,,,,,,,,,,,,,,,,,,,,,,,,,,,,,,,,,,,,,,,,,,,,,,,,,,,,,,,,,,,
1598857036.851696,59.000000,0.000000,4217.436035,4212.692383,4217.692383,4212.179688,4213.974121,4220.641113,4214.615234,4220.769043,4215.512695,4216.922852,4229.743652,4240.128418,4231.410156,4219.487305,0.000000,2.000000,,,,0.000000,4.000000,4.000000,4.000000,4.000000,4.000000,4.000000,4.000000,4.000000,4.000000,4.000000,4.000000,4.000000,4.000000,2.000000,83.333336,,,,,,,,,,,,,,,,,,,,,,,,,,,,,,,,,,,,,,,,,,,,,,,,,,,,,,,,,,,,,,,,,,,,,,,,,,,,,,,,,,,,,,,,,,,,,,,,,,,,,,,,,,,,,,,,,,,,,,,,,,,,,,,
1598857036.859577,60.000000,0.000000,4221.794922,4217.948730,4214.487305,4215.256348,4216.282227,4221.666504,4216.666504,4220.769043,4220.512695,4229.871582,4234.230957,4241.282227,4233.333496,4216.025879,0.000000,2.000000,,,,0.000000,4.000000,4.000000,4.000000,4.000000,4.000000,4.000000,4.000000,4.000000,4.000000,4.000000,4.000000,4.000000,4.000000,2.000000,83.333336,30.000000,0.000000,8201.000000,8118.000000,8200.000000,4454.000000,8697.000000,9275.000000,8556.000000,7831.000000,7791.000000,,,,,,,,,,,,,,,,,,,,,,,,,,,,,,,,,,,,,,,,,,,,,,,,,,,,,,,,,,,,,,,,,,,,,,,,,,,,,,,,,,,,,,,,,,,,,,,,,,,,,,,,,,,,,,,,,,,,
1598857036.867459,61.000000,0.000000,4228.589844,4219.615234,4215.512695,4213.589844,4217.307617,4216.153809,4217.179688,4216.666504,4221.666504,4237.307617,4231.153809,4234.358887,4230.512695,4219.487305,0.000000,2.000000,,,,0.000000,4.000000,4.000000,4.000000,4.000000,4.000000,4.000000,4.000000,4.000000,4.000000,4.000000,4.000000,4.000000,4.000000,2.000000,83.333336,,,,,,,,,,,,,,,,,,,,,,,,,,,,,,,,,,,,,,,,,,,,,,,,,,,,,,,,,,,,,,,,,,,,,,,,,,,,,,,,,,,,,,,,,,,,,,,,,,,,,,,,,,,,,,,,,,,,,,,,,,,,,,,
1598857036.875341,62.000000,0.000000,4228.974121,4216.794922,4211.922852,4208.717773,4220.769043,4215.000000,4214.102539,4210.512695,4215.128418,4230.769043,4228.974121,4232.307617,4230.256348,4223.974121,0.000000,2.000000,,,,0.000000,4.000000,4.000000,4.000000,4.000000,4.000000,4.000000,4.000000,4.000000,4.000000,4.000000,4.000000,4.000000,4.000000,2.000000,83.333336,31.000000,0.000000,8204.000000,8117.000000,8196.000000,4470.000000,8682.000000,9262.000000,8555.000000,7831.000000,7791.000000,,,,,,,,,,,,,,,,,,,,,,,,,,,,,,,,,,,,,,,,,,,,,,,,,,,,,,,,,,,,,,,,,,,,,,,,,,,,,,,,,,,,,,,,,,,,,,,,,,,,,,,,,,,,,,,,,,,,
1598857036.883223,63.000000,0.000000,4228.205078,4215.000000,4207.820313,4205.000000,4215.641113,4213.077148,4212.051270,4208.333496,4216.666504,4223.333496,4227.948730,4233.589844,4232.307617,4221.282227,0.000000,2.000000,,,,0.000000,4.000000,4.000000,4.000000,4.000000,4.000000,4.000000,4.000000,4.000000,4.000000,4.000000,4.000000,4.000000,4.000000,2.000000,83.333336,,,,,,,,,,,,,,,,,,,,,,,,,,,,,,,,,,,,,,,,,,,,,,,,,,,,,,,,,,,,,,,,,,,,,,,,,,,,,,,,,,,,,,,,,,,,,,,,,,,,,,,,,,,,,,,,,,,,,,,,,,,,,,,
1598857036.891105,64.000000,0.000000,4230.000000,4224.615234,4215.128418,4210.897461,4205.256348,4211.794922,4214.358887,4215.897461,4225.512695,4228.077148,4230.769043,4233.717773,4228.461426,4218.205078,3203.000000,2.000000,,,,0.000000,4.000000,4.000000,4.000000,4.000000,4.000000,4.000000,4.000000,4.000000,4.000000,4.000000,4.000000,4.000000,4.000000,2.000000,83.333336,32.000000,0.000000,8209.000000,8122.000000,8201.000000,4465.000000,8686.000000,9250.000000,8557.000000,7831.000000,7790.000000,,,,,,,,,,,,,,,,,,,,,,,,,,,,,,,,,,,,,,,,,,,,,,,,,,,,,,,,,,,,,,,,,,,,,,,,,,,,,,,,,,,,,,,,,,,,,,,,,,,,,,,,,,,,,,,,,,,,
1598857036.898987,65.000000,0.000000,4227.692383,4234.615234,4219.102539,4215.128418,4215.897461,4217.051270,4216.410156,4219.358887,4227.051270,4238.077148,4232.692383,4233.077148,4226.666504,4216.538574,3309.000000,2.000000,,,,0.000000,4.000000,4.000000,4.000000,4.000000,4.000000,4.000000,4.000000,4.000000,4.000000,4.000000,4.000000,4.000000,4.000000,2.000000,83.333336,,,,,,,,,,,,,,,,,,,,,,,,,,,,,,,,,,,,,,,,,,,,,,,,,,,,,,,,,,,,,,,,,,,,,,,,,,,,,,,,,,,,,,,,,,,,,,,,,,,,,,,,,,,,,,,,,,,,,,,,,,,,,,,
1598857036.906768,66.000000,0.000000,4220.641113,4224.743652,4211.666504,4210.897461,4231.282227,4219.615234,4216.410156,4207.820313,4218.589844,4234.743652,4226.025879,4228.717773,4233.077148,4217.179688,3568.000000,2.000000,,,,0.000000,4.000000,4.000000,4.000000,4.000000,4.000000,4.000000,4.000000,4.000000,4.000000,4.000000,4.000000,4.000000,4.000000,2.000000,83.333336,33.000000,0.000000,8211.000000,8115.000000,8195.000000,4464.000000,8665.000000,9235.000000,8555.000000,7831.000000,7792.000000,,,,,,,,,,,,,,,,,,,,,,,,,,,,,,,,,,,,,,,,,,,,,,,,,,,,,,,,,,,,,,,,,,,,,,,,,,,,,,,,,,,,,,,,,,,,,,,,,,,,,,,,,,,,,,,,,,,,
1598857036.914649,67.000000,0.000000,4216.538574,4216.666504,4207.179688,4212.948730,4227.051270,4217.436035,4215.000000,4197.692383,4215.769043,4221.025879,4222.179688,4229.487305,4230.384766,4218.333496,3570.000000,2.000000,,,,0.000000,4.000000,4.000000,4.000000,4.000000,4.000000,4.000000,4.000000,4.000000,4.000000,4.000000,4.000000,4.000000,4.000000,2.000000,83.333336,,,,,,,,,,,,,,,,,,,,,,,,,,,,,,,,,,,,,,,,,,,,,,,,,,,,,,,,,,,,,,,,,,,,,,,,,,,,,,,,,,,,,,,,,,,,,,,,,,,,,,,,,,,,,,,,,,,,,,,,,,,,,,,
1598857036.922530,68.000000,0.000000,4220.769043,4223.333496,4209.871582,4218.974121,4220.512695,4216.922852,4211.410156,4200.000000,4217.051270,4220.256348,4221.922852,4232.179688,4220.128418,4218.589844,1705.000000,2.000000,,,,0.000000,4.000000,4.000000,4.000000,4.000000,4.000000,4.000000,4.000000,4.000000,4.000000,4.000000,4.000000,4.000000,4.000000,2.000000,83.333336,34.000000,0.000000,8213.000000,8111.000000,8202.000000,4462.000000,8672.000000,9249.000000,8553.000000,7827.000000,7792.000000,,,,,,,,,,,,,,,,,,,,,,,,,,,,,,,,,,,,,,,,,,,,,,,,,,,,,,,,,,,,,,,,,,,,,,,,,,,,,,,,,,,,,,,,,,,,,,,,,,,,,,,,,,,,,,,,,,,,
1598857036.930411,69.000000,0.000000,4229.102539,4221.153809,4213.461426,4212.307617,4226.666504,4215.769043,4210.000000,4200.512695,4214.871582,4229.358887,4222.436035,4228.717773,4223.846191,4216.666504,3484.000000,2.000000,,,,0.000000,4.000000,4.000000,4.000000,4.000000,4.000000,4.000000,4.000000,4.000000,4.000000,4.000000,4.000000,4.000000,4.000000,2.000000,83.333336,,,,,,,,,,,,,,,,,,,,,,,,,,,,,,,,,,,,,,,,,,,,,,,,,,,,,,,,,,,,,,,,,,,,,,,,,,,,,,,,,,,,,,,,,,,,,,,,,,,,,,,,,,,,,,,,,,,,,,,,,,,,,,,
1598857036.938193,70.000000,0.000000,4233.974121,4219.102539,4216.282227,4207.436035,4235.769043,4214.358887,4215.512695,4200.256348,4213.333496,4232.179688,4229.487305,4235.000000,4233.974121,4221.922852,3478.000000,2.000000,,,,0.000000,4.000000,4.000000,4.000000,4.000000,4.000000,4.000000,4.000000,4.000000,4.000000,4.000000,4.000000,4.000000,4.000000,2.000000,83.333336,35.000000,0.000000,8212.000000,8114.000000,8201.000000,4452.000000,8701.000000,9241.000000,8556.000000,7819.000000,7791.000000,,,,,,,,,,,,,,,,,,,,,,,,,,,,,,,,,,,,,,,,,,,,,,,,,,,,,,,,,,,,,,,,,,,,,,,,,,,,,,,,,,,,,,,,,,,,,,,,,,,,,,,,,,,,,,,,,,,,
1598857036.946075,71.000000,0.000000,4233.717773,4226.538574,4215.897461,4212.692383,4236.153809,4216.538574,4219.230957,4208.974121,4213.717773,4233.205078,4234.743652,4250.256348,4232.692383,4225.000000,2915.000000,2.000000,,,,0.000000,4.000000,4.000000,4.000000,4.000000,4.000000,4.000000,4.000000,4.000000,4.000000,4.000000,4.000000,4.000000,4.000000,2.000000,83.333336,,,,,,,,,,,,,,,,,,,,,,,,,,,,,,,,,,,,,,,,,,,,,,,,,,,,,,,,,,,,,,,,,,,,,,,,,,,,,,,,,,,,,,,,,,,,,,,,,,,,,,,,,,,,,,,,,,,,,,,,,,,,,,,
1598857036.953956,72.000000,0.000000,4237.436035,4228.333496,4218.461426,4216.410156,4229.358887,4218.717773,4218.077148,4214.358887,4216.666504,4236.410156,4233.974121,4251.410156,4233.333496,4220.641113,3461.000000,2.000000,,,,0.000000,4.000000,4.000000,4.000000,4.000000,4.000000,4.000000,4.000000,4.000000,4.000000,4.000000,4.000000,4.000000,4.000000,2.000000,83.333336,36.000000,0.000000,8211.000000,8114.000000,8199.000000,4446.000000,8677.000000,9243.000000,8555.000000,7829.000000,7792.000000,,,,,,,,,,,,,,,,,,,,,,,,,,,,,,,,,,,,,,,,,,,,,,,5.917598,2.760280,0.864957,1.317454,0.191274,3.405242,1.693861,0.856019,0.592752,0.229308,2.726830,1.392202,0.601534,0.778072,0.154419,1.403198,0.869386,0.783978,0.444977,0.205188,2.474255,2.476060,2.305442,1.823634,0.606490,0.711809,1.752881,0.762170,0.298083,0.164784,1.074517,0.504100,0.726023,0.515522,0.150545,1.545464,1.020361,1.142771,0.374456,0.190813,2.340493,2.848053,1.891556,0.516458,0.212997,1.290705,5.831106,1.452478,1.078045,0.810720,0.285849,1.489646,0.194325,0.258845,0.123850,1.937760,3.477285,0.447583,1.100605,0.331799,2.171293,7.254054,1.469820,1.083210,0.198642,0.601584,0.508011,0.139125,0.161823,0.073343
1598857036.961838,73.000000,0.000000,4234.871582,4221.794922,4216.282227,4215.256348,4229.871582,4218.205078,4219.487305,4203.461426,4217.820313,4230.384766,4227.820313,4235.512695,4237.051270,4216.666504,3597.000000,2.000000,,,,0.000000,4.000000,4.000000,4.000000,4.000000,4.000000,4.000000,4.000000,4.000000,4.000000,4.000000,4.000000,4.000000,4.000000,2.000000,83.333336,,,,,,,,,,,,,,,,,,,,,,,,,,,,,,,,,,,,,,,,,,,,,,,,,,,,,,,,,,,,,,,,,,,,,,,,,,,,,,,,,,,,,,,,,,,,,,,,,,,,,,,,,,,,,,,,,,,,,,,,,,,,,,,
1598857036.969720,74.000000,0.000000,4226.794922,4220.512695,4205.256348,4207.820313,4235.897461,4219.615234,4221.538574,4191.922852,4215.512695,4222.948730,4221.025879,4226.538574,4232.820313,4216.922852,3555.000000,2.000000,,,,0.000000,4.000000,4.000000,4.000000,4.000000,4.000000,4.000000,4.000000,4.000000,4.000000,4.000000,4.000000,4.000000,4.000000,2.000000,83.333336,37.000000,0.000000,8205.000000,8115.000000,8200.000000,4448.000000,8685.000000,9232.000000,8561.000000,7828.000000,7792.000000,,,,,,,,,,,,,,,,,,,,,,,,,,,,,,,,,,,,,,,,,,,,,,,,,,,,,,,,,,,,,,,,,,,,,,,,,,,,,,,,,,,,,,,,,,,,,,,,,,,,,,,,,,,,,,,,,,,,
1598857036.977602,75.000000,0.000000,4225.897461,4222.692383,4200.256348,4201.282227,4234.487305,4219.358887,4219.487305,4194.102539,4217.436035,4226.538574,4223.589844,4230.641113,4231.025879,4214.615234,744.000000,2.000000,,,,0.000000,4.000000,4.000000,4.000000,4.000000,4.000000,4.000000,4.000000,4.000000,4.000000,4.000000,4.000000,4.000000,4.000000,2.000000,83.333336,,,,,,,,,,,,,,,,,,,,,,,,,,,,,,,,,,,,,,,,,,,,,,,,,,,,,,,,,,,,,,,,,,,,,,,,,,,,,,,,,,,,,,,,,,,,,,,,,,,,,,,,,,,,,,,,,,,,,,,,,,,,,,,
1598857036.985484,76.000000,0.000000,4226.025879,4225.512695,4205.512695,4207.307617,4245.897461,4215.641113,4212.436035,4196.025879,4216.153809,4230.641113,4232.179688,4230.769043,4234.230957,4212.692383,1716.000000,2.000000,,,,0.000000,4.000000,4.000000,4.000000,4.000000,4.000000,4.000000,4.000000,4.000000,4.000000,4.000000,4.000000,4.000000,4.000000,2.000000,83.333336,38.000000,0.000000,8209.000000,8118.000000,8207.000000,4447.000000,8683.000000,9229.000000,8556.000000,7831.000000,7791.000000,,,,,,,,,,,,,,,,,,,,,,,,,,,,,,,,,,,,,,,,,,,,,,,,,,,,,,,,,,,,,,,,,,,,,,,,,,,,,,,,,,,,,,,,,,,,,,,,,,,,,,,,,,,,,,,,,,,,
1598857036.993366,77.000000,0.000000,4226.025879,4231.025879,4205.769043,4217.948730,4260.000000,4216.025879,4208.717773,4194.871582,4207.307617,4220.384766,4233.974121,4227.820313,4224.358887,4216.922852,3444.000000,2.000000,,,,0.000000,4.000000,4.000000,4.000000,4.000000,4.000000,4.000000,4.000000,4.000000,4.000000,4.000000,4.000000,4.000000,4.000000,2.000000,83.333336,,,,,,,,,,,,,,,,,,,,,,,,,,,,,,,,,,,,,,,,,,,,,,,,,,,,,,,,,,,,,,,,,,,,,,,,,,,,,,,,,,,,,,,,,,,,,,,,,,,,,,,,,,,,,,,,,,,,,,,,,,,,,,,
1598857037.001148,78.000000,0.000000,4223.461426,4227.820313,4200.384766,4216.794922,4240.000000,4216.282227,4211.025879,4194.230957,4207.051270,4200.769043,4226.025879,4230.000000,4201.025879,4218.333496,3555.000000,2.000000,,,,0.000000,4.000000,4.000000,4.000000,4.000000,4.000000,4.000000,4.000000,4.000000,4.000000,4.000000,4.000000,4.000000,4.000000,2.000000,83.333336,39.000000,0.000000,8207.000000,8126.000000,8198.000000,4448.000000,8689.000000,9231.000000,8555.000000,7834.000000,7791.000000,,,,,,,,,,,,,,,,,,,,,,,,,,,,,,,,,,,,,,,,,,,,,,,,,,,,,,,,,,,,,,,,,,,,,,,,,,,,,,,,,,,,,,,,,,,,,,,,,,,,,,,,,,,,,,,,,,,,
1598857037.009030,79.000000,0.000000,4215.256348,4216.410156,4202.051270,4208.589844,4215.641113,4216.666504,4216.538574,4197.563965,4214.487305,4203.205078,4219.871582,4230.897461,4199.871582,4215.512695,744.000000,2.000000,,,,0.000000,4.000000,4.000000,4.000000,4.000000,4.000000,4.000000,4.000000,4.000000,4.000000,4.000000,4.000000,4.000000,4.000000,2.000000,83.333336,,,,,,,,,,,,,,,,,,,,,,,,,,,,,,,,,,,,,,,,,,,,,,,,,,,,,,,,,,,,,,,,,,,,,,,,,,,,,,,,,,,,,,,,,,,,,,,,,,,,,,,,,,,,,,,,,,,,,,,,,,,,,,,
1598857037.016912,80.000000,0.000000,4217.820313,4215.897461,4205.641113,4205.641113,4224.615234,4225.384766,4223.846191,4204.743652,4219.615234,4230.769043,4225.128418,4231.794922,4225.128418,4217.692383,1716.000000,2.000000,,,,0.000000,4.000000,4.000000,4.000000,4.000000,4.000000,4.000000,4.000000,4.000000,4.000000,4.000000,4.000000,4.000000,4.000000,2.000000,83.333336,40.000000,0.000000,8203.000000,8112.000000,8199.000000,4452.000000,8684.000000,9214.000000,8558.000000,7819.000000,7787.000000,,,,,,,,,,,,,,,,,,,,,,,,,,,,,,,,,,,,,,,,,,,,,,,,,,,,,,,,,,,,,,,,,,,,,,,,,,,,,,,,,,,,,,,,,,,,,,,,,,,,,,,,,,,,,,,,,,,,
1598857037.024794,81.000000,0.000000,4231.922852,4225.769043,4208.077148,4211.410156,4238.461426,4230.769043,4232.179688,4207.563965,4223.333496,4243.589844,4234.487305,4242.948730,4241.410156,4224.230957,3444.000000,2.000000,,,,0.000000,4.000000,4.000000,4.000000,4.000000,4.000000,4.000000,4.000000,4.000000,4.000000,4.000000,4.000000,4.000000,4.000000,2.000000,83.333336,,,,,,,,,,,,,,,,,,,,,,,,,,,,,,,,,,,,,,,,,,,,,,,,,,,,,,,,,,,,,,,,,,,,,,,,,,,,,,,,,,,,,,,,,,,,,,,,,,,,,,,,,,,,,,,,,,,,,,,,,,,,,,,
1598857037.032677,82.000000,0.000000,4235.512695,4222.436035,4212.948730,4212.820313,4227.307617,4224.102539,4237.820313,4203.717773,4225.769043,4237.948730,4234.487305,4255.384766,4243.846191,4226.666504,3555.000000,2.000000,,,,0.000000,4.000000,4.000000,4.000000,4.000000,4.000000,4.000000,4.000000,4.000000,4.000000,4.000000,4.000000,4.000000,4.000000,2.000000,83.333336,41.000000,0.000000,8199.000000,8122.000000,8195.000000,4448.000000,8703.000000,9230.000000,8555.000000,7834.000000,7793.000000,,,,,,,,,,,,,,,,,,,,,,,,,,,,,,,,,,,,,,,,,,,,,,,,,,,,,,,,,,,,,,,,,,,,,,,,,,,,,,,,,,,,,,,,,,,,,,,,,,,,,,,,,,,,,,,,,,,,
1598857037.040559,83.000000,0.000000,4225.384766,4210.641113,4215.000000,4204.230957,4214.743652,4216.794922,4230.769043,4197.051270,4221.794922,4233.589844,4233.205078,4253.333496,4245.256348,4224.615234,744.000000,2.000000,,,,0.000000,4.000000,4.000000,4.000000,4.000000,4.000000,4.000000,4.000000,4.000000,4.000000,4.000000,4.000000,4.000000,4.000000,2.000000,83.333336,,,,,,,,,,,,,,,,,,,,,,,,,,,,,,,,,,,,,,,,,,,,,,,,,,,,,,,,,,,,,,,,,,,,,,,,,,,,,,,,,,,,,,,,,,,,,,,,,,,,,,,,,,,,,,,,,,,,,,,,,,,,,,,
1598857037.048441,84.000000,0.000000,4214.230957,4212.948730,4208.717773,4198.205078,4228.333496,4212.307617,4219.743652,4190.512695,4213.205078,4222.948730,4234.230957,4240.897461,4238.333496,4218.205078,1716.000000,2.000000,,,,0.000000,4.000000,4.000000,4.000000,4.000000,4.000000,4.000000,4.000000,4.000000,4.000000,4.000000,4.000000,4.000000,4.000000,2.000000,83.333336,42.000000,0.000000,8196.000000,8126.000000,8193.000000,4468.000000,8709.000000,9256.000000,8558.000000,7833.000000,7793.000000,,,,,,,,,,,,,,,,,,,,,,,,,,,,,,,,,,,,,,,,,,,,,,,,,,,,,,,,,,,,,,,,,,,,,,,,,,,,,,,,,,,,,,,,,,,,,,,,,,,,,,,,,,,,,,,,,,,,
1598857037.056323,85.000000,0.000000,4208.846191,4218.974121,4200.897461,4199.487305,4245.897461,4207.820313,4219.358887,4185.897461,4207.948730,4205.384766,4224.230957,4232.051270,4221.666504,4211.794922,3444.000000,2.000000,,,,0.000000,4.000000,4.000000,4.000000,4.000000,4.000000,4.000000,4.000000,4.000000,4.000000,4.000000,4.000000,4.000000,4.000000,2.000000,83.333336,,,,,,,,,,,,,,,,,,,,,,,,,,,,,,,,,,,,,,,,,,,,,,,,,,,,,,,,,,,,,,,,,,,,,,,,,,,,,,,,,,,,,,,,,,,,,,,,,,,,,,,,,,,,,,,,,,,,,,,,,,,,,,,
1598857037.064205,86.000000,0.000000,4213.846191,4220.128418,4200.256348,4203.589844,4232.179688,4209.871582,4227.436035,4184.487305,4209.743652,4201.025879,4215.512695,4226.410156,4208.333496,4205.897461,3555.000000,2.000000,,,,0.000000,4.000000,4.000000,4.000000,4.000000,4.000000,4.000000,4.000000,4.000000,4.000000,4.000000,4.000000,4.000000,4.000000,2.000000,83.333336,43.000000,0.000000,8204.000000,8115.000000,8195.000000,4449.000000,8700.000000,9266.000000,8553.000000,7828.000000,7790.000000,,,,,,,,,,,,,,,,,,,,,,,,,,,,,,,,,,,,,,,,,,,,,,,,,,,,,,,,,,,,,,,,,,,,,,,,,,,,,,,,,,,,,,,,,,,,,,,,,,,,,,,,,,,,,,,,,,,,
1598857037.072087,87.000000,0.000000,4217.307617,4219.230957,4202.307617,4206.666504,4212.307617,4214.871582,4230.512695,4184.871582,4208.205078,4209.230957,4216.922852,4220.641113,4201.538574,4205.512695,744.000000,2.000000,,,,0.000000,4.000000,4.000000,4.000000,4.000000,4.000000,4.000000,4.000000,4.000000,4.000000,4.000000,4.000000,4.000000,4.000000,2.000000,83.333336,,,,,,,,,,,,,,,,,,,,,,,,,,,,,,,,,,,,,,,,,,,,,,,,,,,,,,,,,,,,,,,,,,,,,,,,,,,,,,,,,,,,,,,,,,,,,,,,,,,,,,,,,,,,,,,,,,,,,,,,,,,,,,,
1598857037.079868,88.000000,0.000000,4213.333496,4220.000000,4200.256348,4203.846191,4219.102539,4216.282227,4228.333496,4185.512695,4202.820313,4215.000000,4218.333496,4221.153809,4200.512695,4206.538574,1716.000000,2.000000,,,,0.000000,4.000000,4.000000,4.000000,4.000000,4.000000,4.000000,4.000000,4.000000,4.000000,4.000000,4.000000,4.000000,4.000000,2.000000,83.333336,44.000000,0.000000,8205.000000,8107.000000,8190.000000,4426.000000,8667.000000,9266.000000,8556.000000,7830.000000,7790.000000,,,,,,,,,,,,,,,,,,,,,,,,,,,,,,,,,,,,,,,,,,,,,,,3.301677,3.485739,0.832164,1.155970,0.204637,2.215370,2.106882,0.939626,0.504002,0.234992,2.059279,1.940010,0.714090,0.672631,0.152815,1.010548,1.077932,0.840868,0.381557,0.216999,2.368430,2.065300,1.785451,1.682073,0.613052,0.626330,1.463928,0.709735,0.340993,0.177562,0.868893,0.459170,0.669356,0.456019,0.170407,1.197922,1.071252,1.015000,0.344564,0.201057,1.595992,2.794851,1.540397,0.478168,0.215899,0.816816,5.967919,1.209879,1.091303,0.824332,0.225749,1.622496,0.196897,0.208210,0.131418,1.563754,4.579737,0.562195,0.876595,0.369154,1.548126,7.639079,1.358879,0.963295,0.219674,0.345734,0.577011,0.139204,0.128083,0.081087
1598857037.087649,89.000000,0.000000,4217.436035,4222.051270,4202.820313,4201.666504,4225.769043,4219.230957,4232.051270,4185.000000,4206.153809,4209.487305,4217.307617,4228.589844,4201.410156,4208.974121,3444.000000,2.000000,,,,0.000000,4.000000,4.000000,4.000000,4.000000,4.000000,4.000000,4.000000,4.000000,4.000000,4.000000,4.000000,4.000000,4.000000,2.000000,83.333336,,,,,,,,,,,,,,,,,,,,,,,,,,,,,,,,,,,,,,,,,,,,,,,,,,,,,,,,,,,,,,,,,,,,,,,,,,,,,,,,,,,,,,,,,,,,,,,,,,,,,,,,,,,,,,,,,,,,,,,,,,,,,,,
1598857037.095531,90.000000,0.000000,4224.102539,4221.538574,4208.717773,4204.615234,4221.794922,4216.538574,4232.179688,4174.871582,4205.512695,4199.230957,4216.666504,4229.743652,4199.615234,4207.692383,3555.000000,2.000000,,,,0.000000,4.000000,4.000000,4.000000,4.000000,4.000000,4.000000,4.000000,4.000000,4.000000,4.000000,4.000000,4.000000,4.000000,2.000000,83.333336,45.000000,0.000000,8209.000000,8106.000000,8188.000000,4445.000000,8654.000000,9237.000000,8554.000000,7829.000000,7790.000000,,,,,,,,,,,,,,,,,,,,,,,,,,,,,,,,,,,,,,,,,,,,,,,,,,,,,,,,,,,,,,,,,,,,,,,,,,,,,,,,,,,,,,,,,,,,,,,,,,,,,,,,,,,,,,,,,,,,
1598857037.103413,91.000000,0.000000,4221.410156,4222.307617,4208.461426,4203.205078,4226.922852,4208.846191,4221.922852,4169.487305,4198.461426,4200.256348,4216.794922,4226.282227,4199.358887,4205.128418,744.000000,2.000000,,,,0.000000,4.000000,4.000000,4.000000,4.000000,4.000000,4.000000,4.000000,4.000000,4.000000,4.000000,4.000000,4.000000,4.000000,2.000000,83.333336,,,,,,,,,,,,,,,,,,,,,,,,,,,,,,,,,,,,,,,,,,,,,,,,,,,,,,,,,,,,,,,,,,,,,,,,,,,,,,,,,,,,,,,,,,,,,,,,,,,,,,,,,,,,,,,,,,,,,,,,,,,,,,,
