title:demo marker, start timestamp:1597395155.207916, stop timestamp:1597395186.372756, headset type:EPOCPLUS, headset serial:3B9ADC97, headset firmware:625, subject name:deltaphase, channels:165, sampling rate:eeg_128;mot_64;pm_0.1;pow_8, samples:3955      , version:2.0
Timestamp,EEG.Counter,EEG.Interpolated,EEG.AF3,EEG.F7,EEG.F3,EEG.FC5,EEG.T7,EEG.P7,EEG.O1,EEG.O2,EEG.P8,EEG.T8,EEG.FC6,EEG.F4,EEG.F8,EEG.AF4,EEG.RawCq,EEG.Battery,MarkerIndex,MarkerType,MarkerValueInt,EEG.MarkerHardware,CQ.AF3,CQ.F7,CQ.F3,CQ.FC5,CQ.T7,CQ.P7,CQ.O1,CQ.O2,CQ.P8,CQ.T8,CQ.FC6,CQ.F4,CQ.F8,CQ.AF4,CQ.Overall,MOT.CounterMems,MOT.InterpolatedMems,MOT.GyroX,MOT.GyroY,MOT.GyroZ,MOT.AccX,MOT.AccY,MOT.AccZ,MOT.MagX,MOT.MagY,MOT.MagZ,PM.AuditoryAttention.IsActive,PM.AuditoryAttention.Scaled,PM.AuditoryAttention.Raw,PM.AuditoryAttention.Min,PM.AuditoryAttention.Max,PM.VisualAttention.IsActive,PM.VisualAttention.Scaled,PM.VisualAttention.Raw,PM.VisualAttention.Min,PM.VisualAttention.Max,PM.CognitiveStress.IsActive,PM.CognitiveStress.Scaled,PM.CognitiveStress.Raw,PM.CognitiveStress.Min,PM.CognitiveStress.Max,PM.Engagement.IsActive,PM.Engagement.Scaled,PM.Engagement.Raw,PM.Engagement.Min,PM.Engagement.Max,PM.Excitement.IsActive,PM.Excitement.Scaled,PM.Excitement.Raw,PM.Excitement.Min,PM.Excitement.Max,PM.LongTermExcitement,PM.Stress.IsActive,PM.Stress.Scaled,PM.Stress.Raw,PM.Stress.Min,PM.Stress.Max,PM.Relaxation.IsActive,PM.Relaxation.Scaled,PM.Relaxation.Raw,PM.Relaxation.Min,PM.Relaxation.Max,PM.Interest.IsActive,PM.Interest.Scaled,PM.Interest.Raw,PM.Interest.Min,PM.Interest.Max,PM.Focus.IsActive,PM.Focus.Scaled,PM.Focus.Raw,PM.Focus.Min,PM.Focus.Max,POW.AF3.Theta,POW.AF3.Alpha,POW.AF3.BetaL,POW.AF3.BetaH,POW.AF3.Gamma,POW.F7.Theta,POW.F7.Alpha,POW.F7.BetaL,POW.F7.BetaH,POW.F7.Gamma,POW.F3.Theta,POW.F3.Alpha,POW.F3.BetaL,POW.F3.BetaH,POW.F3.Gamma,POW.FC5.Theta,POW.FC5.Alpha,POW.FC5.BetaL,POW.FC5.BetaH,POW.FC5.Gamma,POW.T7.Theta,POW.T7.Alpha,POW.T7.BetaL,POW.T7.BetaH,POW.T7.Gamma,POW.P7.Theta,POW.P7.Alpha,POW.P7.BetaL,POW.P7.BetaH,POW.P7.Gamma,POW.O1.Theta,POW.O1.Alpha,POW.O1.BetaL,POW.O1.BetaH,POW.O1.Gamma,POW.O2.Theta,POW.O2.Alpha,POW.O2.BetaL,POW.O2.BetaH,POW.O2.Gamma,POW.P8.Theta,POW.P8.Alpha,POW.P8.BetaL,POW.P8.BetaH,POW.P8.Gamma,POW.T8.Theta,POW.T8.Alpha,POW.T8.BetaL,POW.T8.BetaH,POW.T8.Gamma,POW.FC6.Theta,POW.FC6.Alpha,POW.FC6.BetaL,POW.FC6.BetaH,POW.FC6.Gamma,POW.F4.Theta,POW.F4.Alpha,POW.F4.BetaL,POW.F4.BetaH,POW.F4.Gamma,POW.F8.Theta,POW.F8.Alpha,POW.F8.BetaL,POW.F8.BetaH,POW.F8.Gamma,POW.AF4.Theta,POW.AF4.Alpha,POW.AF4.BetaL,POW.AF4.BetaH,POW.AF4.Gamma
1597395155.207916,122.000000,0.000000,4214.615234,4211.410156,4211.153809,4212.436035,4211.538574,4211.153809,4210.000000,4214.871582,4214.615234,4216.666504,4267.179688,4950.512695,4214.871582,4217.692383,0.000000,3.000000,,,,0.000000,0.000000,0.000000,0.000000,0.000000,0.000000,0.000000,0.000000,0.000000,0.000000,0.000000,0.000000,0.000000,0.000000,0.000000,0.000000,61.000000,0.000000,8203.000000,8101.000000,8198.000000,12228.000000,8834.000000,7615.000000,8232.000000,8629.000000,8511.000000,,,,,,,,,,,,,,,,,,,,,,,,,,,,,,,,,,,,,,,,,,,,,,,,,,,,,,,,,,,,,,,,,,,,,,,,,,,,,,,,,,,,,,,,,,,,,,,,,,,,,,,,,,,,,,,,,,,,
1597395155.215900,123.000000,0.000000,4209.615234,4212.051270,4211.794922,4213.205078,4210.641113,4211.282227,4209.358887,4213.461426,4214.358887,4216.666504,4267.692383,4950.769043,4214.102539,4218.974121,0.000000,3.000000,,,,0.000000,0.000000,0.000000,0.000000,0.000000,0.000000,0.000000,0.000000,0.000000,0.000000,0.000000,0.000000,0.000000,0.000000,0.000000,0.000000,,,,,,,,,,,,,,,,,,,,,,,,,,,,,,,,,,,,,,,,,,,,,,,,,,,,,,,,,,,,,,,,,,,,,,,,,,,,,,,,,,,,,,,,,,,,,,,,,,,,,,,,,,,,,,,,,,,,,,,,,,,,,,,
1597395155.223784,124.000000,0.000000,4211.153809,4211.794922,4210.769043,4213.717773,4208.974121,4209.487305,4208.589844,4216.538574,4217.436035,4216.666504,4267.307617,4950.769043,4211.153809,4220.000000,0.000000,3.000000,,,,0.000000,0.000000,0.000000,0.000000,0.000000,0.000000,0.000000,0.000000,0.000000,0.000000,0.000000,0.000000,0.000000,0.000000,0.000000,0.000000,62.000000,0.000000,8206.000000,8099.000000,8201.000000,12233.000000,8856.000000,7637.000000,8233.000000,8627.000000,8512.000000,,,,,,,,,,,,,,,,,,,,,,,,,,,,,,,,,,,,,,,,,,,,,,,,,,,,,,,,,,,,,,,,,,,,,,,,,,,,,,,,,,,,,,,,,,,,,,,,,,,,,,,,,,,,,,,,,,,,
1597395155.231669,125.000000,0.000000,4214.102539,4211.282227,4211.025879,4215.128418,4210.897461,4208.974121,4208.846191,4215.128418,4214.102539,4216.666504,4267.563965,4951.666504,4212.692383,4218.205078,0.000000,3.000000,,,,0.000000,0.000000,0.000000,0.000000,0.000000,0.000000,0.000000,0.000000,0.000000,0.000000,0.000000,0.000000,0.000000,0.000000,0.000000,0.000000,,,,,,,,,,,,,,,,,,,,,,,,,,,,,,,,,,,,,,,,,,,,,,,,,,,,,,,,,,,,,,,,,,,,,,,,,,,,,,,,,,,,,,,,,,,,,,,,,,,,,,,,,,,,,,,,,,,,,,,,,,,,,,,
1597395155.239553,126.000000,0.000000,4212.307617,4215.641113,4210.256348,4215.897461,4212.820313,4214.230957,4212.051270,4210.641113,4208.846191,4216.666504,4268.846191,4951.538574,4215.897461,4217.436035,0.000000,3.000000,,,,0.000000,0.000000,0.000000,0.000000,0.000000,0.000000,0.000000,0.000000,0.000000,0.000000,0.000000,0.000000,0.000000,0.000000,0.000000,0.000000,63.000000,0.000000,8206.000000,8101.000000,8196.000000,12233.000000,8857.000000,7623.000000,8231.000000,8625.000000,8511.000000,,,,,,,,,,,,,,,,,,,,,,,,,,,,,,,,,,,,,,,,,,,,,,,,,,,,,,,,,,,,,,,,,,,,,,,,,,,,,,,,,,,,,,,,,,,,,,,,,,,,,,,,,,,,,,,,,,,,
1597395155.247437,127.000000,0.000000,4209.487305,4211.153809,4208.846191,4213.974121,4211.153809,4214.871582,4212.307617,4211.538574,4211.794922,4216.666504,4269.102539,4955.512695,4214.102539,4218.461426,52.000000,3.000000,,,,0.000000,0.000000,0.000000,0.000000,0.000000,0.000000,0.000000,0.000000,0.000000,0.000000,0.000000,0.000000,0.000000,0.000000,0.000000,0.000000,,,,,,,,,,,,,,,,,,,,,,,,,,,,,,,,,,,,,,,,,,,,,,,,,,,,,,,,,,,,,,,,,,,,,,,,,,,,,,,,,,,,,,,,,,,,,,,,,,,,,,,,,,,,,,,,,,,,,,,,,,,,,,,
1597395155.255321,0.000000,0.000000,4210.897461,4207.692383,4209.743652,4210.897461,4212.436035,4211.538574,4210.128418,4212.948730,4217.436035,4216.666504,4265.641113,4954.358887,4213.717773,4218.589844,0.000000,3.000000,,,,0.000000,0.000000,0.000000,0.000000,0.000000,0.000000,0.000000,0.000000,0.000000,0.000000,0.000000,0.000000,0.000000,0.000000,0.000000,0.000000,0.000000,0.000000,8199.000000,8099.000000,8197.000000,12239.000000,8873.000000,7625.000000,8230.000000,8639.000000,8513.000000,,,,,,,,,,,,,,,,,,,,,,,,,,,,,,,,,,,,,,,,,,,,,,,,,,,,,,,,,,,,,,,,,,,,,,,,,,,,,,,,,,,,,,,,,,,,,,,,,,,,,,,,,,,,,,,,,,,,
1597395155.263206,1.000000,0.000000,4213.333496,4210.641113,4212.692383,4210.384766,4213.077148,4208.077148,4210.897461,4211.153809,4215.897461,4216.666504,4269.358887,4955.512695,4214.230957,4220.128418,0.000000,3.000000,,,,0.000000,0.000000,0.000000,0.000000,0.000000,0.000000,0.000000,0.000000,0.000000,0.000000,0.000000,0.000000,0.000000,0.000000,0.000000,0.000000,,,,,,,,,,,,,,,,,,,,,,,,,,,,,,,,,,,,,,,,,,,,,,,,,,,,,,,,,,,,,,,,,,,,,,,,,,,,,,,,,,,,,,,,,,,,,,,,,,,,,,,,,,,,,,,,,,,,,,,,,,,,,,,
1597395155.271090,2.000000,0.000000,4215.384766,4210.897461,4210.000000,4212.563965,4212.948730,4210.384766,4213.461426,4212.563965,4211.282227,4216.666504,4270.256348,4954.102539,4213.205078,4219.230957,0.000000,3.000000,,,,0.000000,0.000000,0.000000,0.000000,0.000000,0.000000,0.000000,0.000000,0.000000,0.000000,0.000000,0.000000,0.000000,0.000000,0.000000,0.000000,1.000000,0.000000,8206.000000,8108.000000,8195.000000,12238.000000,8828.000000,7625.000000,8233.000000,8628.000000,8512.000000,,,,,,,,,,,,,,,,,,,,,,,,,,,,,,,,,,,,,,,,,,,,,,,,,,,,,,,,,,,,,,,,,,,,,,,,,,,,,,,,,,,,,,,,,,,,,,,,,,,,,,,,,,,,,,,,,,,,
1597395155.278974,3.000000,0.000000,4212.307617,4208.589844,4209.487305,4213.205078,4211.666504,4209.230957,4208.846191,4213.205078,4212.307617,4216.666504,4263.846191,4956.153809,4213.589844,4218.077148,0.000000,3.000000,,,,0.000000,0.000000,0.000000,0.000000,0.000000,0.000000,0.000000,0.000000,0.000000,0.000000,0.000000,0.000000,0.000000,0.000000,0.000000,0.000000,,,,,,,,,,,,,,,,,,,,,,,,,,,,,,,,,,,,,,,,,,,,,,,,,,,,,,,,,,,,,,,,,,,,,,,,,,,,,,,,,,,,,,,,,,,,,,,,,,,,,,,,,,,,,,,,,,,,,,,,,,,,,,,
1597395155.286858,4.000000,0.000000,4210.384766,4210.769043,4212.692383,4210.897461,4211.153809,4209.615234,4206.282227,4213.717773,4216.153809,4216.666504,4261.794922,4955.128418,4215.897461,4216.666504,0.000000,3.000000,,,,0.000000,0.000000,0.000000,0.000000,0.000000,0.000000,0.000000,0.000000,0.000000,0.000000,0.000000,0.000000,0.000000,0.000000,0.000000,0.000000,2.000000,0.000000,8201.000000,8103.000000,8191.000000,12228.000000,8870.000000,7630.000000,8232.000000,8627.000000,8513.000000,,,,,,,,,,,,,,,,,,,,,,,,,,,,,,,,,,,,,,,,,,,,,,,,,,,,,,,,,,,,,,,,,,,,,,,,,,,,,,,,,,,,,,,,,,,,,,,,,,,,,,,,,,,,,,,,,,,,
1597395155.294642,5.000000,0.000000,4213.077148,4208.461426,4213.846191,4212.436035,4209.487305,4209.615234,4209.358887,4213.974121,4217.179688,4216.666504,4270.641113,4954.871582,4215.000000,4218.333496,0.000000,3.000000,,,,0.000000,0.000000,0.000000,0.000000,0.000000,0.000000,0.000000,0.000000,0.000000,0.000000,0.000000,0.000000,0.000000,0.000000,0.000000,0.000000,,,,,,,,,,,,,,,,,,,,,,,,,,,,,,,,,,,,,,,,,,,,,,,,,,,,,,,,,,,,,,,,,,,,,,,,,,,,,,,,,,,,,,,,,,,,,,,,,,,,,,,,,,,,,,,,,,,,,,,,,,,,,,,
1597395155.302527,6.000000,0.000000,4214.230957,4209.487305,4211.282227,4215.000000,4208.333496,4211.794922,4209.102539,4210.128418,4216.153809,4216.666504,4271.025879,4952.179688,4213.461426,4219.358887,0.000000,3.000000,,,,0.000000,0.000000,0.000000,0.000000,0.000000,0.000000,0.000000,0.000000,0.000000,0.000000,0.000000,0.000000,0.000000,0.000000,0.000000,0.000000,3.000000,0.000000,8205.000000,8095.000000,8201.000000,12234.000000,8831.000000,7599.000000,8236.000000,8627.000000,8512.000000,,,,,,,,,,,,,,,,,,,,,,,,,,,,,,,,,,,,,,,,,,,,,,,,,,,,,,,,,,,,,,,,,,,,,,,,,,,,,,,,,,,,,,,,,,,,,,,,,,,,,,,,,,,,,,,,,,,,
1597395155.310411,7.000000,0.000000,4210.897461,4211.538574,4213.333496,4212.948730,4208.717773,4210.897461,4208.205078,4209.102539,4216.282227,4216.666504,4265.769043,4954.615234,4215.000000,4219.102539,0.000000,3.000000,,,,0.000000,0.000000,0.000000,0.000000,0.000000,0.000000,0.000000,0.000000,0.000000,0.000000,0.000000,0.000000,0.000000,0.000000,0.000000,0.000000,,,,,,,,,,,,,,,,,,,,,,,,,,,,,,,,,,,,,,,,,,,,,,,,,,,,,,,,,,0.028424,0.017921,0.026801,0.016736,0.029946,0.018355,0.013635,0.021832,0.025485,0.034531,0.011633,0.009188,0.018640,0.018374,0.019908,0.015717,0.014273,0.011626,0.009710,0.014432,0.017003,0.026800,0.016681,0.021105,0.020509,0.015918,0.032684,0.029640,0.013329,0.018493,0.022180,0.022413,0.012339,0.019850,0.014112,0.032883,0.027834,0.034900,0.038901,0.049361,0.019866,0.043829,0.021720,0.014565,0.018217,0.001448,0.000922,0.000604,0.000351,0.000299,0.028642,0.012550,0.010889,0.023744,0.019787,0.019777,0.061619,0.029648,0.034051,0.031262,0.023316,0.030124,0.015631,0.011176,0.017918,0.011468,0.013516,0.049060,0.014652,0.026136
1597395155.318295,8.000000,0.000000,4208.974121,4208.846191,4213.333496,4210.128418,4211.922852,4210.512695,4211.153809,4215.384766,4216.025879,4216.666504,4264.358887,4955.000000,4215.384766,4217.051270,0.000000,3.000000,1,1,,0.000000,0.000000,0.000000,0.000000,0.000000,0.000000,0.000000,0.000000,0.000000,0.000000,0.000000,0.000000,0.000000,0.000000,0.000000,0.000000,4.000000,0.000000,8207.000000,8096.000000,8201.000000,12224.000000,8839.000000,7626.000000,8234.000000,8632.000000,8513.000000,,,,,,,,,,,,,,,,,,,,,,,,,,,,,,,,,,,,,,,,,,,,,,,,,,,,,,,,,,,,,,,,,,,,,,,,,,,,,,,,,,,,,,,,,,,,,,,,,,,,,,,,,,,,,,,,,,,,
1597395155.326179,9.000000,0.000000,4212.820313,4209.871582,4211.666504,4211.538574,4210.769043,4210.384766,4209.230957,4216.410156,4214.358887,4216.666504,4265.000000,4954.487305,4215.128418,4218.589844,0.000000,3.000000,,,,0.000000,0.000000,0.000000,0.000000,0.000000,0.000000,0.000000,0.000000,0.000000,0.000000,0.000000,0.000000,0.000000,0.000000,0.000000,0.000000,,,,,,,,,,,,,,,,,,,,,,,,,,,,,,,,,,,,,,,,,,,,,,,,,,,,,,,,,,,,,,,,,,,,,,,,,,,,,,,,,,,,,,,,,,,,,,,,,,,,,,,,,,,,,,,,,,,,,,,,,,,,,,,
1597395155.334063,10.000000,0.000000,4215.897461,4216.153809,4210.512695,4212.692383,4210.256348,4211.666504,4207.307617,4210.256348,4214.230957,4216.666504,4264.230957,4955.128418,4213.205078,4219.102539,0.000000,3.000000,,,,0.000000,0.000000,0.000000,0.000000,0.000000,0.000000,0.000000,0.000000,0.000000,0.000000,0.000000,0.000000,0.000000,0.000000,0.000000,0.000000,5.000000,0.000000,8205.000000,8095.000000,8197.000000,12231.000000,8834.000000,7611.000000,8234.000000,8627.000000,8511.000000,,,,,,,,,,,,,,,,,,,,,,,,,,,,,,,,,,,,,,,,,,,,,,,,,,,,,,,,,,,,,,,,,,,,,,,,,,,,,,,,,,,,,,,,,,,,,,,,,,,,,,,,,,,,,,,,,,,,
1597395155.341947,11.000000,0.000000,4213.461426,4215.256348,4210.256348,4212.051270,4211.538574,4211.282227,4209.487305,4210.512695,4213.717773,4216.666504,4266.794922,4955.897461,4212.307617,4217.820313,0.000000,3.000000,,,,0.000000,0.000000,0.000000,0.000000,0.000000,0.000000,0.000000,0.000000,0.000000,0.000000,0.000000,0.000000,0.000000,0.000000,0.000000,0.000000,,,,,,,,,,,,,,,,,,,,,,,,,,,,,,,,,,,,,,,,,,,,,,,,,,,,,,,,,,,,,,,,,,,,,,,,,,,,,,,,,,,,,,,,,,,,,,,,,,,,,,,,,,,,,,,,,,,,,,,,,,,,,,,
1597395155.349831,12.000000,0.000000,4209.487305,4211.153809,4209.871582,4211.794922,4209.615234,4209.743652,4210.641113,4215.256348,4214.102539,4216.666504,4267.307617,4955.128418,4213.717773,4216.794922,0.000000,3.000000,,,,0.000000,0.000000,0.000000,0.000000,0.000000,0.000000,0.000000,0.000000,0.000000,0.000000,0.000000,0.000000,0.000000,0.000000,0.000000,0.000000,6.000000,0.000000,8207.000000,8099.000000,8198.000000,12234.000000,8792.000000,7630.000000,8235.000000,8632.000000,8512.000000,,,,,,,,,,,,,,,,,,,,,,,,,,,,,,,,,,,,,,,,,,,,,,,,,,,,,,,,,,,,,,,,,,,,,,,,,,,,,,,,,,,,,,,,,,,,,,,,,,,,,,,,,,,,,,,,,,,,
1597395155.357715,13.000000,0.000000,4211.025879,4212.692383,4210.512695,4212.563965,4209.230957,4210.000000,4209.102539,4214.358887,4215.128418,4216.666504,4264.487305,4954.358887,4215.000000,4215.897461,0.000000,3.000000,,,,0.000000,0.000000,0.000000,0.000000,0.000000,0.000000,0.000000,0.000000,0.000000,0.000000,0.000000,0.000000,0.000000,0.000000,0.000000,0.000000,,,,,,,,,,,,,,,,,,,,,,,,,,,,,,,,,,,,,,,,,,,,,,,,,,,,,,,,,,,,,,,,,,,,,,,,,,,,,,,,,,,,,,,,,,,,,,,,,,,,,,,,,,,,,,,,,,,,,,,,,,,,,,,
1597395155.365698,14.000000,0.000000,4211.153809,4211.410156,4212.692383,4211.922852,4213.717773,4211.794922,4209.487305,4213.846191,4216.538574,4216.666504,4266.410156,4955.256348,4213.589844,4216.410156,0.000000,3.000000,,,,0.000000,0.000000,0.000000,0.000000,0.000000,0.000000,0.000000,0.000000,0.000000,0.000000,0.000000,0.000000,0.000000,0.000000,0.000000,0.000000,7.000000,0.000000,8210.000000,8098.000000,8200.000000,12234.000000,8872.000000,7619.000000,8237.000000,8627.000000,8510.000000,,,,,,,,,,,,,,,,,,,,,,,,,,,,,,,,,,,,,,,,,,,,,,,,,,,,,,,,,,,,,,,,,,,,,,,,,,,,,,,,,,,,,,,,,,,,,,,,,,,,,,,,,,,,,,,,,,,,
1597395155.373582,15.000000,0.000000,4210.256348,4210.128418,4212.820313,4210.897461,4215.384766,4212.563965,4209.487305,4216.153809,4215.897461,4216.666504,4266.282227,4955.769043,4211.410156,4220.000000,0.000000,3.000000,,,,0.000000,0.000000,0.000000,0.000000,0.000000,0.000000,0.000000,0.000000,0.000000,0.000000,0.000000,0.000000,0.000000,0.000000,0.000000,0.000000,,,,,,,,,,,,,,,,,,,,,,,,,,,,,,,,,,,,,,,,,,,,,,,,,,,,,,,,,,,,,,,,,,,,,,,,,,,,,,,,,,,,,,,,,,,,,,,,,,,,,,,,,,,,,,,,,,,,,,,,,,,,,,,
1597395155.381466,16.000000,0.000000,4214.230957,4209.358887,4211.538574,4211.922852,4212.563965,4211.025879,4207.692383,4215.512695,4214.230957,4216.794922,4262.820313,4956.410156,4211.153809,4219.743652,0.000000,3.000000,,,,0.000000,0.000000,0.000000,0.000000,0.000000,0.000000,0.000000,0.000000,0.000000,0.000000,0.000000,0.000000,0.000000,0.000000,0.000000,0.000000,8.000000,0.000000,8208.000000,8093.000000,8200.000000,12228.000000,8843.000000,7625.000000,8233.000000,8627.000000,8511.000000,,,,,,,,,,,,,,,,,,,,,,,,,,,,,,,,,,,,,,,,,,,,,,,,,,,,,,,,,,,,,,,,,,,,,,,,,,,,,,,,,,,,,,,,,,,,,,,,,,,,,,,,,,,,,,,,,,,,
1597395155.389350,17.000000,0.000000,4215.384766,4212.563965,4210.128418,4212.307617,4211.794922,4212.948730,4207.563965,4212.563965,4216.025879,4216.666504,4264.358887,4953.205078,4213.589844,4216.153809,0.000000,3.000000,,,,0.000000,0.000000,0.000000,0.000000,0.000000,0.000000,0.000000,0.000000,0.000000,0.000000,0.000000,0.000000,0.000000,0.000000,0.000000,0.000000,,,,,,,,,,,,,,,,,,,,,,,,,,,,,,,,,,,,,,,,,,,,,,,,,,,,,,,,,,,,,,,,,,,,,,,,,,,,,,,,,,,,,,,,,,,,,,,,,,,,,,,,,,,,,,,,,,,,,,,,,,,,,,,
1597395155.397234,18.000000,0.000000,4210.256348,4213.205078,4212.179688,4211.282227,4210.000000,4214.487305,4207.948730,4212.948730,4216.025879,4216.794922,4266.538574,4954.871582,4214.615234,4216.666504,0.000000,3.000000,,,,0.000000,0.000000,0.000000,0.000000,0.000000,0.000000,0.000000,0.000000,0.000000,0.000000,0.000000,0.000000,0.000000,0.000000,0.000000,0.000000,9.000000,0.000000,8206.000000,8095.000000,8197.000000,12235.000000,8853.000000,7630.000000,8233.000000,8624.000000,8513.000000,,,,,,,,,,,,,,,,,,,,,,,,,,,,,,,,,,,,,,,,,,,,,,,,,,,,,,,,,,,,,,,,,,,,,,,,,,,,,,,,,,,,,,,,,,,,,,,,,,,,,,,,,,,,,,,,,,,,
1597395155.405117,19.000000,0.000000,4211.410156,4211.282227,4213.461426,4210.256348,4209.743652,4214.743652,4207.948730,4215.512695,4213.846191,4217.436035,4262.307617,4953.974121,4213.461426,4218.717773,0.000000,3.000000,,,,0.000000,0.000000,0.000000,0.000000,0.000000,0.000000,0.000000,0.000000,0.000000,0.000000,0.000000,0.000000,0.000000,0.000000,0.000000,0.000000,,,,,,,,,,,,,,,,,,,,,,,,,,,,,,,,,,,,,,,,,,,,,,,,,,,,,,,,,,,,,,,,,,,,,,,,,,,,,,,,,,,,,,,,,,,,,,,,,,,,,,,,,,,,,,,,,,,,,,,,,,,,,,,
1597395155.413001,20.000000,0.000000,4212.948730,4208.717773,4212.820313,4211.025879,4210.000000,4211.153809,4207.692383,4213.974121,4214.102539,4217.692383,4265.256348,4954.487305,4213.717773,4217.948730,0.000000,3.000000,,,,0.000000,0.000000,0.000000,0.000000,0.000000,0.000000,0.000000,0.000000,0.000000,0.000000,0.000000,0.000000,0.000000,0.000000,0.000000,0.000000,10.000000,0.000000,8199.000000,8096.000000,8198.000000,12231.000000,8827.000000,7608.000000,8235.000000,8627.000000,8511.000000,,,,,,,,,,,,,,,,,,,,,,,,,,,,,,,,,,,,,,,,,,,,,,,,,,,,,,,,,,,,,,,,,,,,,,,,,,,,,,,,,,,,,,,,,,,,,,,,,,,,,,,,,,,,,,,,,,,,
1597395155.420885,21.000000,0.000000,4211.538574,4210.512695,4210.512695,4212.820313,4212.179688,4210.128418,4208.461426,4210.769043,4216.410156,4217.563965,4270.384766,4953.205078,4213.333496,4215.384766,0.000000,3.000000,,,,0.000000,0.000000,0.000000,0.000000,0.000000,0.000000,0.000000,0.000000,0.000000,0.000000,0.000000,0.000000,0.000000,0.000000,0.000000,0.000000,,,,,,,,,,,,,,,,,,,,,,,,,,,,,,,,,,,,,,,,,,,,,,,,,,,,,,,,,,,,,,,,,,,,,,,,,,,,,,,,,,,,,,,,,,,,,,,,,,,,,,,,,,,,,,,,,,,,,,,,,,,,,,,
1597395155.428769,22.000000,0.000000,4212.692383,4213.077148,4213.461426,4214.615234,4210.641113,4209.102539,4208.589844,4211.025879,4215.256348,4217.563965,4268.846191,4953.717773,4211.666504,4216.153809,0.000000,3.000000,,,,0.000000,0.000000,0.000000,0.000000,0.000000,0.000000,0.000000,0.000000,0.000000,0.000000,0.000000,0.000000,0.000000,0.000000,0.000000,0.000000,11.000000,0.000000,8200.000000,8102.000000,8201.000000,12230.000000,8866.000000,7611.000000,8236.000000,8627.000000,8511.000000,,,,,,,,,,,,,,,,,,,,,,,,,,,,,,,,,,,,,,,,,,,,,,,,,,,,,,,,,,,,,,,,,,,,,,,,,,,,,,,,,,,,,,,,,,,,,,,,,,,,,,,,,,,,,,,,,,,,
1597395155.436653,23.000000,0.000000,4214.358887,4214.743652,4215.256348,4213.205078,4208.333496,4209.871582,4209.358887,4215.769043,4216.538574,4217.692383,4263.846191,4950.128418,4212.051270,4217.307617,0.000000,3.000000,,,,0.000000,0.000000,0.000000,0.000000,0.000000,0.000000,0.000000,0.000000,0.000000,0.000000,0.000000,0.000000,0.000000,0.000000,0.000000,0.000000,,,,,,,,,,,,,,,,,,,,,,,,,,,,,,,,,,,,,,,,,,,,,,,,,,,,,,,,,,0.024229,0.019866,0.031798,0.019027,0.030967,0.018405,0.015596,0.025720,0.027725,0.033086,0.016292,0.006999,0.017611,0.022123,0.022540,0.015636,0.017251,0.013276,0.009421,0.015873,0.017894,0.025505,0.018963,0.019650,0.015046,0.016121,0.040035,0.028958,0.013530,0.019586,0.025538,0.025294,0.012408,0.020912,0.015372,0.032486,0.032835,0.039504,0.034476,0.053521,0.016137,0.044007,0.022125,0.013667,0.015649,0.001731,0.001191,0.000818,0.000475,0.000354,0.030047,0.017143,0.011389,0.023179,0.020464,0.015894,0.045735,0.028974,0.034593,0.030389,0.023219,0.027911,0.019375,0.012841,0.017981,0.013160,0.015141,0.046790,0.015619,0.025704
1597395155.444537,24.000000,0.000000,4211.153809,4209.102539,4213.333496,4211.025879,4210.128418,4208.077148,4207.820313,4217.179688,4217.436035,4217.563965,4264.102539,4955.641113,4213.717773,4217.692383,0.000000,3.000000,,,,0.000000,0.000000,0.000000,0.000000,0.000000,0.000000,0.000000,0.000000,0.000000,0.000000,0.000000,0.000000,0.000000,0.000000,0.000000,0.000000,12.000000,0.000000,8201.000000,8096.000000,8202.000000,12227.000000,8882.000000,7632.000000,8234.000000,8666.000000,8510.000000,,,,,,,,,,,,,,,,,,,,,,,,,,,,,,,,,,,,,,,,,,,,,,,,,,,,,,,,,,,,,,,,,,,,,,,,,,,,,,,,,,,,,,,,,,,,,,,,,,,,,,,,,,,,,,,,,,,,
1597395155.452421,25.000000,0.000000,4210.000000,4207.563965,4210.384766,4211.153809,4213.461426,4209.743652,4208.077148,4212.307617,4211.282227,4217.563965,4263.461426,4958.589844,4214.102539,4215.641113,0.000000,3.000000,,,,0.000000,0.000000,0.000000,0.000000,0.000000,0.000000,0.000000,0.000000,0.000000,0.000000,0.000000,0.000000,0.000000,0.000000,0.000000,0.000000,,,,,,,,,,,,,,,,,,,,,,,,,,,,,,,,,,,,,,,,,,,,,,,,,,,,,,,,,,,,,,,,,,,,,,,,,,,,,,,,,,,,,,,,,,,,,,,,,,,,,,,,,,,,,,,,,,,,,,,,,,,,,,,
1597395155.460305,26.000000,0.000000,4213.461426,4210.512695,4213.461426,4212.307617,4210.256348,4210.512695,4210.512695,4210.897461,4210.000000,4217.563965,4264.743652,4955.256348,4213.717773,4216.282227,0.000000,3.000000,,,,0.000000,0.000000,0.000000,0.000000,0.000000,0.000000,0.000000,0.000000,0.000000,0.000000,0.000000,0.000000,0.000000,0.000000,0.000000,0.000000,13.000000,0.000000,8201.000000,8103.000000,8198.000000,12227.000000,8848.000000,7638.000000,8234.000000,8626.000000,8512.000000,,,,,,,,,,,,,,,,,,,,,,,,,,,,,,,,,,,,,,,,,,,,,,,,,,,,,,,,,,,,,,,,,,,,,,,,,,,,,,,,,,,,,,,,,,,,,,,,,,,,,,,,,,,,,,,,,,,,
1597395155.468189,27.000000,0.000000,4214.743652,4209.743652,4213.974121,4212.179688,4210.384766,4209.743652,4210.512695,4214.487305,4214.230957,4217.563965,4267.051270,4951.153809,4213.589844,4216.794922,0.000000,3.000000,,,,0.000000,0.000000,0.000000,0.000000,0.000000,0.000000,0.000000,0.000000,0.000000,0.000000,0.000000,0.000000,0.000000,0.000000,0.000000,0.000000,,,,,,,,,,,,,,,,,,,,,,,,,,,,,,,,,,,,,,,,,,,,,,,,,,,,,,,,,,,,,,,,,,,,,,,,,,,,,,,,,,,,,,,,,,,,,,,,,,,,,,,,,,,,,,,,,,,,,,,,,,,,,,,
1597395155.476073,28.000000,0.000000,4211.410156,4207.692383,4212.820313,4212.307617,4212.820313,4210.384766,4208.077148,4214.230957,4213.974121,4217.563965,4267.436035,4953.589844,4214.871582,4218.717773,0.000000,3.000000,,,,0.000000,0.000000,0.000000,0.000000,0.000000,0.000000,0.000000,0.000000,0.000000,0.000000,0.000000,0.000000,0.000000,0.000000,0.000000,0.000000,14.000000,0.000000,8203.000000,8099.000000,8198.000000,12234.000000,8847.000000,7617.000000,8232.000000,8644.000000,8512.000000,,,,,,,,,,,,,,,,,,,,,,,,,,,,,,,,,,,,,,,,,,,,,,,,,,,,,,,,,,,,,,,,,,,,,,,,,,,,,,,,,,,,,,,,,,,,,,,,,,,,,,,,,,,,,,,,,,,,
1597395155.483957,29.000000,0.000000,4210.000000,4209.487305,4212.179688,4211.922852,4211.282227,4213.077148,4208.589844,4213.717773,4213.077148,4217.692383,4265.128418,4953.077148,4214.743652,4219.358887,0.000000,3.000000,,,,0.000000,0.000000,0.000000,0.000000,0.000000,0.000000,0.000000,0.000000,0.000000,0.000000,0.000000,0.000000,0.000000,0.000000,0.000000,0.000000,,,,,,,,,,,,,,,,,,,,,,,,,,,,,,,,,,,,,,,,,,,,,,,,,,,,,,,,,,,,,,,,,,,,,,,,,,,,,,,,,,,,,,,,,,,,,,,,,,,,,,,,,,,,,,,,,,,,,,,,,,,,,,,
1597395155.491841,30.000000,0.000000,4212.179688,4212.820313,4211.025879,4212.820313,4209.358887,4211.410156,4210.000000,4214.230957,4217.179688,4217.692383,4261.922852,4952.051270,4213.205078,4218.205078,0.000000,3.000000,,,,0.000000,0.000000,0.000000,0.000000,0.000000,0.000000,0.000000,0.000000,0.000000,0.000000,0.000000,0.000000,0.000000,0.000000,0.000000,0.000000,15.000000,0.000000,8204.000000,8095.000000,8198.000000,12229.000000,8854.000000,7627.000000,8233.000000,8627.000000,8510.000000,,,,,,,,,,,,,,,,,,,,,,,,,,,,,,,,,,,,,,,,,,,,,,,,,,,,,,,,,,,,,,,,,,,,,,,,,,,,,,,,,,,,,,,,,,,,,,,,,,,,,,,,,,,,,,,,,,,,
1597395155.499625,31.000000,0.000000,4210.769043,4213.461426,4209.871582,4213.846191,4210.384766,4208.717773,4208.333496,4213.077148,4215.000000,4217.692383,4263.205078,4956.153809,4212.179688,4216.153809,0.000000,3.000000,,,,0.000000,0.000000,0.000000,0.000000,0.000000,0.000000,0.000000,0.000000,0.000000,0.000000,0.000000,0.000000,0.000000,0.000000,0.000000,0.000000,,,,,,,,,,,,,,,,,,,,,,,,,,,,,,,,,,,,,,,,,,,,,,,,,,,,,,,,,,,,,,,,,,,,,,,,,,,,,,,,,,,,,,,,,,,,,,,,,,,,,,,,,,,,,,,,,,,,,,,,,,,,,,,
1597395155.507509,32.000000,0.000000,4210.128418,4212.820313,4212.307617,4214.358887,4211.025879,4210.000000,4208.461426,4213.077148,4209.871582,4217.692383,4266.794922,4956.025879,4213.205078,4216.666504,0.000000,3.000000,,,,0.000000,0.000000,0.000000,0.000000,0.000000,0.000000,0.000000,0.000000,0.000000,0.000000,0.000000,0.000000,0.000000,0.000000,0.000000,0.000000,16.000000,0.000000,8206.000000,8100.000000,8193.000000,12229.000000,8834.000000,7621.000000,8233.000000,8630.000000,8512.000000,,,,,,,,,,,,,,,,,,,,,,,,,,,,,,,,,,,,,,,,,,,,,,,,,,,,,,,,,,,,,,,,,,,,,,,,,,,,,,,,,,,,,,,,,,,,,,,,,,,,,,,,,,,,,,,,,,,,
1597395155.515393,33.000000,0.000000,4212.820313,4209.102539,4214.102539,4214.230957,4211.410156,4211.922852,4210.384766,4212.948730,4213.333496,4217.692383,4267.051270,4953.846191,4213.846191,4219.230957,0.000000,3.000000,,,,0.000000,0.000000,0.000000,0.000000,0.000000,0.000000,0.000000,0.000000,0.000000,0.000000,0.000000,0.000000,0.000000,0.000000,0.000000,0.000000,,,,,,,,,,,,,,,,,,,,,,,,,,,,,,,,,,,,,,,,,,,,,,,,,,,,,,,,,,,,,,,,,,,,,,,,,,,,,,,,,,,,,,,,,,,,,,,,,,,,,,,,,,,,,,,,,,,,,,,,,,,,,,,
1597395155.523277,34.000000,0.000000,4214.487305,4212.179688,4212.436035,4212.820313,4211.282227,4212.948730,4210.897461,4211.922852,4216.666504,4217.692383,4265.512695,4953.205078,4213.205078,4220.512695,0.000000,3.000000,,,,0.000000,0.000000,0.000000,0.000000,0.000000,0.000000,0.000000,0.000000,0.000000,0.000000,0.000000,0.000000,0.000000,0.000000,0.000000,0.000000,17.000000,0.000000,8206.000000,8093.000000,8201.000000,12239.000000,8860.000000,7619.000000,8234.000000,8627.000000,8514.000000,,,,,,,,,,,,,,,,,,,,,,,,,,,,,,,,,,,,,,,,,,,,,,,,,,,,,,,,,,,,,,,,,,,,,,,,,,,,,,,,,,,,,,,,,,,,,,,,,,,,,,,,,,,,,,,,,,,,
1597395155.531161,35.000000,0.000000,4212.820313,4213.589844,4212.948730,4210.769043,4207.948730,4210.769043,4208.589844,4211.922852,4216.153809,4217.692383,4266.282227,4955.512695,4212.436035,4220.769043,0.000000,3.000000,,,,0.000000,0.000000,0.000000,0.000000,0.000000,0.000000,0.000000,0.000000,0.000000,0.000000,0.000000,0.000000,0.000000,0.000000,0.000000,0.000000,,,,,,,,,,,,,,,,,,,,,,,,,,,,,,,,,,,,,,,,,,,,,,,,,,,,,,,,,,,,,,,,,,,,,,,,,,,,,,,,,,,,,,,,,,,,,,,,,,,,,,,,,,,,,,,,,,,,,,,,,,,,,,,
1597395155.539045,36.000000,0.000000,4215.384766,4213.846191,4211.153809,4210.641113,4209.358887,4211.153809,4206.538574,4210.641113,4215.769043,4217.692383,4266.794922,4953.589844,4213.589844,4218.333496,0.000000,3.000000,,,,0.000000,0.000000,0.000000,0.000000,0.000000,0.000000,0.000000,0.000000,0.000000,0.000000,0.000000,0.000000,0.000000,0.000000,0.000000,0.000000,18.000000,0.000000,8206.000000,8101.000000,8202.000000,12225.000000,8837.000000,7632.000000,8234.000000,8632.000000,8514.000000,,,,,,,,,,,,,,,,,,,,,,,,,,,,,,,,,,,,,,,,,,,,,,,,,,,,,,,,,,,,,,,,,,,,,,,,,,,,,,,,,,,,,,,,,,,,,,,,,,,,,,,,,,,,,,,,,,,,
1597395155.546929,37.000000,0.000000,4216.282227,4214.102539,4210.128418,4211.538574,4213.205078,4208.974121,4207.948730,4210.897461,4216.153809,4217.692383,4268.589844,4954.743652,4214.230957,4217.563965,0.000000,3.000000,,,,0.000000,0.000000,0.000000,0.000000,0.000000,0.000000,0.000000,0.000000,0.000000,0.000000,0.000000,0.000000,0.000000,0.000000,0.000000,0.000000,,,,,,,,,,,,,,,,,,,,,,,,,,,,,,,,,,,,,,,,,,,,,,,,,,,,,,,,,,,,,,,,,,,,,,,,,,,,,,,,,,,,,,,,,,,,,,,,,,,,,,,,,,,,,,,,,,,,,,,,,,,,,,,
1597395155.554813,38.000000,0.000000,4212.948730,4212.820313,4211.410156,4212.436035,4212.948730,4208.589844,4210.512695,4216.025879,4215.897461,4217.692383,4269.743652,4953.205078,4212.051270,4219.743652,0.000000,3.000000,,,,0.000000,0.000000,0.000000,0.000000,0.000000,0.000000,0.000000,0.000000,0.000000,0.000000,0.000000,0.000000,0.000000,0.000000,0.000000,0.000000,19.000000,0.000000,8208.000000,8102.000000,8203.000000,12233.000000,8834.000000,7604.000000,8231.000000,8626.000000,8510.000000,,,,,,,,,,,,,,,,,,,,,,,,,,,,,,,,,,,,,,,,,,,,,,,,,,,,,,,,,,,,,,,,,,,,,,,,,,,,,,,,,,,,,,,,,,,,,,,,,,,,,,,,,,,,,,,,,,,,
1597395155.562697,39.000000,0.000000,4212.051270,4210.384766,4212.820313,4213.589844,4208.717773,4210.128418,4210.384766,4217.179688,4215.384766,4217.692383,4269.358887,4955.256348,4212.948730,4219.615234,0.000000,3.000000,,,,0.000000,0.000000,0.000000,0.000000,0.000000,0.000000,0.000000,0.000000,0.000000,0.000000,0.000000,0.000000,0.000000,0.000000,0.000000,0.000000,,,,,,,,,,,,,,,,,,,,,,,,,,,,,,,,,,,,,,,,,,,,,,,,,,,,,,,,,,0.020493,0.022933,0.036655,0.022523,0.031507,0.020330,0.018380,0.029377,0.028735,0.030899,0.022199,0.005810,0.016904,0.025560,0.024386,0.014802,0.020690,0.014335,0.009478,0.017921,0.021856,0.023988,0.020871,0.018642,0.011338,0.015818,0.043700,0.026041,0.013707,0.020757,0.029156,0.027158,0.012545,0.020180,0.016823,0.033403,0.037978,0.040113,0.032513,0.057462,0.011973,0.042451,0.021546,0.013608,0.013960,0.002109,0.001506,0.001068,0.000611,0.000419,0.030571,0.021949,0.011850,0.022179,0.021412,0.015168,0.031666,0.027679,0.034919,0.028922,0.023164,0.025502,0.023270,0.014539,0.018023,0.015303,0.017121,0.043542,0.016678,0.024080
1597395155.570679,40.000000,0.000000,4212.563965,4212.692383,4209.871582,4213.077148,4210.769043,4211.666504,4209.230957,4212.692383,4215.000000,4217.692383,4267.692383,4955.256348,4215.000000,4217.563965,0.000000,3.000000,,,,0.000000,0.000000,0.000000,0.000000,0.000000,0.000000,0.000000,0.000000,0.000000,0.000000,0.000000,0.000000,0.000000,0.000000,0.000000,0.000000,20.000000,0.000000,8208.000000,8096.000000,8202.000000,12227.000000,8828.000000,7619.000000,8233.000000,8629.000000,8512.000000,,,,,,,,,,,,,,,,,,,,,,,,,,,,,,,,,,,,,,,,,,,,,,,,,,,,,,,,,,,,,,,,,,,,,,,,,,,,,,,,,,,,,,,,,,,,,,,,,,,,,,,,,,,,,,,,,,,,
1597395155.578562,41.000000,0.000000,4209.358887,4212.692383,4210.769043,4211.922852,4213.846191,4206.025879,4207.563965,4212.307617,4213.205078,4217.692383,4269.358887,4956.794922,4212.307617,4217.948730,0.000000,3.000000,,,,0.000000,0.000000,0.000000,0.000000,0.000000,0.000000,0.000000,0.000000,0.000000,0.000000,0.000000,0.000000,0.000000,0.000000,0.000000,0.000000,,,,,,,,,,,,,,,,,,,,,,,,,,,,,,,,,,,,,,,,,,,,,,,,,,,,,,,,,,,,,,,,,,,,,,,,,,,,,,,,,,,,,,,,,,,,,,,,,,,,,,,,,,,,,,,,,,,,,,,,,,,,,,,
1597395155.586444,42.000000,0.000000,4208.846191,4212.051270,4211.153809,4212.051270,4213.974121,4207.820313,4209.487305,4215.384766,4213.974121,4217.692383,4267.563965,4952.948730,4212.179688,4216.538574,0.000000,3.000000,,,,0.000000,0.000000,0.000000,0.000000,0.000000,0.000000,0.000000,0.000000,0.000000,0.000000,0.000000,0.000000,0.000000,0.000000,0.000000,0.000000,21.000000,0.000000,8200.000000,8099.000000,8200.000000,12231.000000,8869.000000,7637.000000,8234.000000,8629.000000,8512.000000,,,,,,,,,,,,,,,,,,,,,,,,,,,,,,,,,,,,,,,,,,,,,,,,,,,,,,,,,,,,,,,,,,,,,,,,,,,,,,,,,,,,,,,,,,,,,,,,,,,,,,,,,,,,,,,,,,,,
1597395155.594227,43.000000,0.000000,4211.282227,4211.282227,4212.051270,4212.179688,4211.025879,4211.666504,4209.358887,4214.871582,4215.769043,4217.692383,4266.666504,4954.743652,4216.153809,4216.666504,0.000000,3.000000,,,,0.000000,0.000000,0.000000,0.000000,0.000000,0.000000,0.000000,0.000000,0.000000,0.000000,0.000000,0.000000,0.000000,0.000000,0.000000,0.000000,,,,,,,,,,,,,,,,,,,,,,,,,,,,,,,,,,,,,,,,,,,,,,,,,,,,,,,,,,,,,,,,,,,,,,,,,,,,,,,,,,,,,,,,,,,,,,,,,,,,,,,,,,,,,,,,,,,,,,,,,,,,,,,
1597395155.602110,44.000000,0.000000,4210.000000,4211.666504,4213.717773,4211.153809,4210.897461,4211.922852,4208.205078,4213.461426,4213.205078,4217.692383,4264.487305,4955.128418,4216.153809,4218.077148,0.000000,3.000000,,,,0.000000,0.000000,0.000000,0.000000,0.000000,0.000000,0.000000,0.000000,0.000000,0.000000,0.000000,0.000000,0.000000,0.000000,0.000000,0.000000,22.000000,0.000000,8203.000000,8097.000000,8200.000000,12236.000000,8814.000000,7606.000000,8236.000000,8624.000000,8513.000000,,,,,,,,,,,,,,,,,,,,,,,,,,,,,,,,,,,,,,,,,,,,,,,,,,,,,,,,,,,,,,,,,,,,,,,,,,,,,,,,,,,,,,,,,,,,,,,,,,,,,,,,,,,,,,,,,,,,
1597395155.609993,45.000000,0.000000,4211.282227,4210.128418,4213.077148,4211.538574,4211.538574,4211.025879,4208.077148,4213.846191,4211.025879,4217.692383,4264.871582,4955.128418,4213.077148,4219.102539,0.000000,3.000000,,,,0.000000,0.000000,0.000000,0.000000,0.000000,0.000000,0.000000,0.000000,0.000000,0.000000,0.000000,0.000000,0.000000,0.000000,0.000000,0.000000,,,,,,,,,,,,,,,,,,,,,,,,,,,,,,,,,,,,,,,,,,,,,,,,,,,,,,,,,,,,,,,,,,,,,,,,,,,,,,,,,,,,,,,,,,,,,,,,,,,,,,,,,,,,,,,,,,,,,,,,,,,,,,,
1597395155.617876,46.000000,0.000000,4217.820313,4211.025879,4209.743652,4211.410156,4212.436035,4211.794922,4210.256348,4213.846191,4214.102539,4217.692383,4267.307617,4955.384766,4212.820313,4216.922852,0.000000,3.000000,,,,0.000000,0.000000,0.000000,0.000000,0.000000,0.000000,0.000000,0.000000,0.000000,0.000000,0.000000,0.000000,0.000000,0.000000,0.000000,0.000000,23.000000,0.000000,8208.000000,8097.000000,8196.000000,12226.000000,8867.000000,7628.000000,8238.000000,8626.000000,8511.000000,,,,,,,,,,,,,,,,,,,,,,,,,,,,,,,,,,,,,,,,,,,,,,,,,,,,,,,,,,,,,,,,,,,,,,,,,,,,,,,,,,,,,,,,,,,,,,,,,,,,,,,,,,,,,,,,,,,,
1597395155.625759,47.000000,0.000000,4215.384766,4214.487305,4211.410156,4212.307617,4209.487305,4210.897461,4208.846191,4212.692383,4216.538574,4217.692383,4265.384766,4955.897461,4214.487305,4217.307617,0.000000,3.000000,,,,0.000000,0.000000,0.000000,0.000000,0.000000,0.000000,0.000000,0.000000,0.000000,0.000000,0.000000,0.000000,0.000000,0.000000,0.000000,0.000000,,,,,,,,,,,,,,,,,,,,,,,,,,,,,,,,,,,,,,,,,,,,,,,,,,,,,,,,,,,,,,,,,,,,,,,,,,,,,,,,,,,,,,,,,,,,,,,,,,,,,,,,,,,,,,,,,,,,,,,,,,,,,,,
1597395155.633642,48.000000,0.000000,4210.000000,4214.102539,4213.077148,4214.358887,4208.589844,4209.487305,4208.205078,4214.871582,4215.000000,4217.692383,4262.948730,4955.384766,4213.333496,4218.717773,0.000000,3.000000,,,,0.000000,0.000000,0.000000,0.000000,0.000000,0.000000,0.000000,0.000000,0.000000,0.000000,0.000000,0.000000,0.000000,0.000000,0.000000,0.000000,24.000000,0.000000,8206.000000,8102.000000,8198.000000,12221.000000,8804.000000,7617.000000,8234.000000,8629.000000,8511.000000,,,,,,,,,,,,,,,,,,,,,,,,,,,,,,,,,,,,,,,,,,,,,,,,,,,,,,,,,,,,,,,,,,,,,,,,,,,,,,,,,,,,,,,,,,,,,,,,,,,,,,,,,,,,,,,,,,,,
1597395155.641526,49.000000,0.000000,4212.051270,4211.410156,4212.179688,4214.230957,4211.410156,4208.333496,4209.615234,4215.000000,4215.128418,4217.692383,4266.666504,4955.512695,4212.179688,4219.487305,0.000000,3.000000,,,,0.000000,0.000000,0.000000,0.000000,0.000000,0.000000,0.000000,0.000000,0.000000,0.000000,0.000000,0.000000,0.000000,0.000000,0.000000,0.000000,,,,,,,,,,,,,,,,,,,,,,,,,,,,,,,,,,,,,,,,,,,,,,,,,,,,,,,,,,,,,,,,,,,,,,,,,,,,,,,,,,,,,,,,,,,,,,,,,,,,,,,,,,,,,,,,,,,,,,,,,,,,,,,
1597395155.649410,50.000000,0.000000,4213.461426,4213.205078,4213.589844,4212.179688,4212.179688,4209.102539,4208.717773,4213.974121,4216.922852,4217.692383,4269.871582,4955.000000,4212.948730,4218.333496,0.000000,3.000000,,,,0.000000,0.000000,0.000000,0.000000,0.000000,0.000000,0.000000,0.000000,0.000000,0.000000,0.000000,0.000000,0.000000,0.000000,0.000000,0.000000,25.000000,0.000000,8201.000000,8101.000000,8192.000000,12242.000000,8895.000000,7626.000000,8237.000000,8630.000000,8512.000000,,,,,,,,,,,,,,,,,,,,,,,,,,,,,,,,,,,,,,,,,,,,,,,,,,,,,,,,,,,,,,,,,,,,,,,,,,,,,,,,,,,,,,,,,,,,,,,,,,,,,,,,,,,,,,,,,,,,
1597395155.657294,51.000000,0.000000,4211.794922,4216.410156,4212.948730,4213.205078,4211.538574,4212.307617,4208.589844,4214.615234,4216.025879,4217.692383,4267.179688,4952.563965,4213.846191,4217.051270,0.000000,3.000000,,,,0.000000,0.000000,0.000000,0.000000,0.000000,0.000000,0.000000,0.000000,0.000000,0.000000,0.000000,0.000000,0.000000,0.000000,0.000000,0.000000,,,,,,,,,,,,,,,,,,,,,,,,,,,,,,,,,,,,,,,,,,,,,,,,,,,,,,,,,,,,,,,,,,,,,,,,,,,,,,,,,,,,,,,,,,,,,,,,,,,,,,,,,,,,,,,,,,,,,,,,,,,,,,,
1597395155.665178,52.000000,0.000000,4210.384766,4209.487305,4209.615234,4214.230957,4210.897461,4210.000000,4210.000000,4213.205078,4213.846191,4217.692383,4268.333496,4954.230957,4214.230957,4218.589844,0.000000,3.000000,,,,0.000000,0.000000,0.000000,0.000000,0.000000,0.000000,0.000000,0.000000,0.000000,0.000000,0.000000,0.000000,0.000000,0.000000,0.000000,0.000000,26.000000,0.000000,8207.000000,8093.000000,8201.000000,12235.000000,8858.000000,7613.000000,8235.000000,8628.000000,8515.000000,,,,,,,,,,,,,,,,,,,,,,,,,,,,,,,,,,,,,,,,,,,,,,,,,,,,,,,,,,,,,,,,,,,,,,,,,,,,,,,,,,,,,,,,,,,,,,,,,,,,,,,,,,,,,,,,,,,,
1597395155.673062,53.000000,0.000000,4210.000000,4208.717773,4209.871582,4212.436035,4210.384766,4208.077148,4209.487305,4211.538574,4213.205078,4217.692383,4269.102539,4956.153809,4216.282227,4220.384766,0.000000,3.000000,,,,0.000000,0.000000,0.000000,0.000000,0.000000,0.000000,0.000000,0.000000,0.000000,0.000000,0.000000,0.000000,0.000000,0.000000,0.000000,0.000000,,,,,,,,,,,,,,,,,,,,,,,,,,,,,,,,,,,,,,,,,,,,,,,,,,,,,,,,,,,,,,,,,,,,,,,,,,,,,,,,,,,,,,,,,,,,,,,,,,,,,,,,,,,,,,,,,,,,,,,,,,,,,,,
1597395155.680946,54.000000,0.000000,4210.384766,4213.077148,4212.436035,4212.563965,4210.000000,4210.897461,4207.820313,4213.974121,4214.743652,4217.692383,4267.563965,4959.230957,4216.025879,4221.025879,0.000000,3.000000,,,,0.000000,0.000000,0.000000,0.000000,0.000000,0.000000,0.000000,0.000000,0.000000,0.000000,0.000000,0.000000,0.000000,0.000000,0.000000,0.000000,27.000000,0.000000,8205.000000,8094.000000,8192.000000,12229.000000,8850.000000,7623.000000,8232.000000,8627.000000,8512.000000,,,,,,,,,,,,,,,,,,,,,,,,,,,,,,,,,,,,,,,,,,,,,,,,,,,,,,,,,,,,,,,,,,,,,,,,,,,,,,,,,,,,,,,,,,,,,,,,,,,,,,,,,,,,,,,,,,,,
1597395155.688830,55.000000,0.000000,4212.436035,4214.102539,4210.897461,4213.077148,4212.179688,4214.615234,4209.102539,4216.025879,4215.512695,4217.692383,4267.948730,4955.256348,4214.230957,4219.102539,0.000000,3.000000,,,,0.000000,0.000000,0.000000,0.000000,0.000000,0.000000,0.000000,0.000000,0.000000,0.000000,0.000000,0.000000,0.000000,0.000000,0.000000,0.000000,,,,,,,,,,,,,,,,,,,,,,,,,,,,,,,,,,,,,,,,,,,,,,,,,,,,,,,,,,0.018750,0.026928,0.039851,0.026371,0.031853,0.023362,0.021741,0.031846,0.028209,0.028426,0.028468,0.005831,0.016738,0.027681,0.025048,0.013007,0.023556,0.014801,0.009650,0.019709,0.028190,0.023379,0.021256,0.018209,0.009658,0.015608,0.042665,0.022347,0.013934,0.021482,0.032557,0.026908,0.012953,0.017824,0.018178,0.036123,0.042498,0.036415,0.032866,0.060206,0.008600,0.040053,0.019846,0.014481,0.013681,0.002519,0.001777,0.001272,0.000714,0.000469,0.030198,0.025444,0.011930,0.021932,0.022908,0.019578,0.022713,0.026188,0.034359,0.026913,0.023845,0.023132,0.026641,0.015756,0.017972,0.017623,0.018795,0.039841,0.017379,0.021566
1597395155.696714,56.000000,0.000000,4210.641113,4212.179688,4211.025879,4211.025879,4212.436035,4210.641113,4208.461426,4213.077148,4214.743652,4217.692383,4267.436035,4952.692383,4214.871582,4215.769043,0.000000,3.000000,,,,0.000000,0.000000,0.000000,0.000000,0.000000,0.000000,0.000000,0.000000,0.000000,0.000000,0.000000,0.000000,0.000000,0.000000,0.000000,0.000000,28.000000,0.000000,8199.000000,8102.000000,8195.000000,12236.000000,8843.000000,7612.000000,8234.000000,8625.000000,8514.000000,,,,,,,,,,,,,,,,,,,,,,,,,,,,,,,,,,,,,,,,,,,,,,,,,,,,,,,,,,,,,,,,,,,,,,,,,,,,,,,,,,,,,,,,,,,,,,,,,,,,,,,,,,,,,,,,,,,,
1597395155.704598,57.000000,0.000000,4209.615234,4213.333496,4211.922852,4211.538574,4211.794922,4208.589844,4206.666504,4212.692383,4215.256348,4217.692383,4262.179688,4952.179688,4214.487305,4214.871582,0.000000,3.000000,,,,0.000000,0.000000,0.000000,0.000000,0.000000,0.000000,0.000000,0.000000,0.000000,0.000000,0.000000,0.000000,0.000000,0.000000,0.000000,0.000000,,,,,,,,,,,,,,,,,,,,,,,,,,,,,,,,,,,,,,,,,,,,,,,,,,,,,,,,,,,,,,,,,,,,,,,,,,,,,,,,,,,,,,,,,,,,,,,,,,,,,,,,,,,,,,,,,,,,,,,,,,,,,,,
1597395155.712382,58.000000,0.000000,4207.307617,4210.512695,4214.102539,4214.230957,4209.615234,4207.948730,4208.205078,4212.820313,4214.487305,4217.692383,4264.358887,4956.922852,4211.666504,4217.436035,0.000000,3.000000,,,,0.000000,0.000000,0.000000,0.000000,0.000000,0.000000,0.000000,0.000000,0.000000,0.000000,0.000000,0.000000,0.000000,0.000000,0.000000,0.000000,29.000000,0.000000,8199.000000,8100.000000,8195.000000,12230.000000,8858.000000,7631.000000,8237.000000,8629.000000,8512.000000,,,,,,,,,,,,,,,,,,,,,,,,,,,,,,,,,,,,,,,,,,,,,,,,,,,,,,,,,,,,,,,,,,,,,,,,,,,,,,,,,,,,,,,,,,,,,,,,,,,,,,,,,,,,,,,,,,,,
1597395155.720266,59.000000,0.000000,4207.436035,4211.410156,4212.307617,4211.922852,4210.000000,4211.153809,4210.641113,4213.974121,4215.384766,4217.692383,4265.384766,4952.563965,4214.102539,4218.333496,0.000000,3.000000,,,,0.000000,0.000000,0.000000,0.000000,0.000000,0.000000,0.000000,0.000000,0.000000,0.000000,0.000000,0.000000,0.000000,0.000000,0.000000,0.000000,,,,,,,,,,,,,,,,,,,,,,,,,,,,,,,,,,,,,,,,,,,,,,,,,,,,,,,,,,,,,,,,,,,,,,,,,,,,,,,,,,,,,,,,,,,,,,,,,,,,,,,,,,,,,,,,,,,,,,,,,,,,,,,
1597395155.728150,60.000000,0.000000,4213.846191,4214.743652,4212.563965,4211.410156,4210.384766,4211.282227,4208.589844,4212.692383,4217.179688,4217.692383,4262.179688,4953.077148,4217.820313,4218.974121,0.000000,3.000000,,,,0.000000,0.000000,0.000000,0.000000,0.000000,0.000000,0.000000,0.000000,0.000000,0.000000,0.000000,0.000000,0.000000,0.000000,0.000000,0.000000,30.000000,0.000000,8207.000000,8095.000000,8206.000000,12225.000000,8822.000000,7611.000000,8239.000000,8648.000000,8512.000000,,,,,,,,,,,,,,,,,,,,,,,,,,,,,,,,,,,,,,,,,,,,,,,,,,,,,,,,,,,,,,,,,,,,,,,,,,,,,,,,,,,,,,,,,,,,,,,,,,,,,,,,,,,,,,,,,,,,
1597395155.736034,61.000000,0.000000,4216.922852,4213.846191,4214.358887,4213.333496,4210.512695,4210.000000,4207.051270,4211.025879,4212.820313,4217.692383,4263.333496,4957.948730,4214.230957,4218.205078,0.000000,3.000000,,,,0.000000,0.000000,0.000000,0.000000,0.000000,0.000000,0.000000,0.000000,0.000000,0.000000,0.000000,0.000000,0.000000,0.000000,0.000000,0.000000,,,,,,,,,,,,,,,,,,,,,,,,,,,,,,,,,,,,,,,,,,,,,,,,,,,,,,,,,,,,,,,,,,,,,,,,,,,,,,,,,,,,,,,,,,,,,,,,,,,,,,,,,,,,,,,,,,,,,,,,,,,,,,,
1597395155.743918,62.000000,0.000000,4214.230957,4210.256348,4215.256348,4212.820313,4210.769043,4208.077148,4207.692383,4211.794922,4210.897461,4217.692383,4268.974121,4958.333496,4212.307617,4217.436035,0.000000,3.000000,,,,0.000000,0.000000,0.000000,0.000000,0.000000,0.000000,0.000000,0.000000,0.000000,0.000000,0.000000,0.000000,0.000000,0.000000,0.000000,0.000000,31.000000,0.000000,8206.000000,8102.000000,8200.000000,12232.000000,8855.000000,7617.000000,8230.000000,8629.000000,8511.000000,,,,,,,,,,,,,,,,,,,,,,,,,,,,,,,,,,,,,,,,,,,,,,,,,,,,,,,,,,,,,,,,,,,,,,,,,,,,,,,,,,,,,,,,,,,,,,,,,,,,,,,,,,,,,,,,,,,,
1597395155.751801,63.000000,0.000000,4212.820313,4211.025879,4211.153809,4212.179688,4212.563965,4210.512695,4209.102539,4212.307617,4217.563965,4217.692383,4267.820313,4950.897461,4213.333496,4217.051270,0.000000,3.000000,,,,0.000000,0.000000,0.000000,0.000000,0.000000,0.000000,0.000000,0.000000,0.000000,0.000000,0.000000,0.000000,0.000000,0.000000,0.000000,0.000000,,,,,,,,,,,,,,,,,,,,,,,,,,,,,,,,,,,,,,,,,,,,,,,,,,,,,,,,,,,,,,,,,,,,,,,,,,,,,,,,,,,,,,,,,,,,,,,,,,,,,,,,,,,,,,,,,,,,,,,,,,,,,,,
1597395155.759685,64.000000,0.000000,4213.077148,4212.051270,4209.743652,4213.589844,4211.922852,4210.512695,4208.974121,4211.410156,4218.077148,4217.692383,4267.563965,4952.948730,4212.436035,4219.230957,0.000000,3.000000,,,,0.000000,0.000000,0.000000,0.000000,0.000000,0.000000,0.000000,0.000000,0.000000,0.000000,0.000000,0.000000,0.000000,0.000000,0.000000,0.000000,32.000000,0.000000,8204.000000,8101.000000,8198.000000,12236.000000,8864.000000,7617.000000,8231.000000,8628.000000,8510.000000,,,,,,,,,,,,,,,,,,,,,,,,,,,,,,,,,,,,,,,,,,,,,,,,,,,,,,,,,,,,,,,,,,,,,,,,,,,,,,,,,,,,,,,,,,,,,,,,,,,,,,,,,,,,,,,,,,,,
1597395155.767569,65.000000,0.000000,4211.922852,4212.051270,4211.410156,4213.717773,4211.410156,4209.102539,4208.846191,4209.871582,4214.102539,4217.692383,4269.743652,4955.769043,4211.538574,4218.333496,0.000000,3.000000,,,,0.000000,0.000000,0.000000,0.000000,0.000000,0.000000,0.000000,0.000000,0.000000,0.000000,0.000000,0.000000,0.000000,0.000000,0.000000,0.000000,,,,,,,,,,,,,,,,,,,,,,,,,,,,,,,,,,,,,,,,,,,,,,,,,,,,,,,,,,,,,,,,,,,,,,,,,,,,,,,,,,,,,,,,,,,,,,,,,,,,,,,,,,,,,,,,,,,,,,,,,,,,,,,
1597395155.775453,66.000000,0.000000,4211.922852,4212.051270,4210.769043,4212.436035,4212.307617,4208.205078,4208.461426,4212.051270,4215.769043,4217.692383,4268.589844,4953.205078,4214.230957,4218.333496,0.000000,3.000000,,,,0.000000,0.000000,0.000000,0.000000,0.000000,0.000000,0.000000,0.000000,0.000000,0.000000,0.000000,0.000000,0.000000,0.000000,0.000000,0.000000,33.000000,0.000000,8204.000000,8103.000000,8193.000000,12240.000000,8880.000000,7621.000000,8233.000000,8630.000000,8509.000000,,,,,,,,,,,,,,,,,,,,,,,,,,,,,,,,,,,,,,,,,,,,,,,,,,,,,,,,,,,,,,,,,,,,,,,,,,,,,,,,,,,,,,,,,,,,,,,,,,,,,,,,,,,,,,,,,,,,
1597395155.783237,67.000000,0.000000,4210.641113,4211.153809,4209.615234,4211.666504,4211.538574,4207.307617,4208.461426,4213.846191,4214.743652,4217.692383,4266.538574,4954.102539,4213.461426,4219.743652,0.000000,3.000000,,,,0.000000,0.000000,0.000000,0.000000,0.000000,0.000000,0.000000,0.000000,0.000000,0.000000,0.000000,0.000000,0.000000,0.000000,0.000000,0.000000,,,,,,,,,,,,,,,,,,,,,,,,,,,,,,,,,,,,,,,,,,,,,,,,,,,,,,,,,,,,,,,,,,,,,,,,,,,,,,,,,,,,,,,,,,,,,,,,,,,,,,,,,,,,,,,,,,,,,,,,,,,,,,,
1597395155.791120,68.000000,0.000000,4210.641113,4211.282227,4211.794922,4212.948730,4210.000000,4209.102539,4209.230957,4213.077148,4210.897461,4217.692383,4266.153809,4956.153809,4211.666504,4219.102539,0.000000,3.000000,,,,0.000000,0.000000,0.000000,0.000000,0.000000,0.000000,0.000000,0.000000,0.000000,0.000000,0.000000,0.000000,0.000000,0.000000,0.000000,0.000000,34.000000,0.000000,8205.000000,8107.000000,8197.000000,12226.000000,8843.000000,7638.000000,8233.000000,8624.000000,8514.000000,,,,,,,,,,,,,,,,,,,,,,,,,,,,,,,,,,,,,,,,,,,,,,,,,,,,,,,,,,,,,,,,,,,,,,,,,,,,,,,,,,,,,,,,,,,,,,,,,,,,,,,,,,,,,,,,,,,,
1597395155.799004,69.000000,0.000000,4212.436035,4210.512695,4212.436035,4213.077148,4210.256348,4210.897461,4211.153809,4211.153809,4215.256348,4217.692383,4267.820313,4955.000000,4214.102539,4217.948730,0.000000,3.000000,,,,0.000000,0.000000,0.000000,0.000000,0.000000,0.000000,0.000000,0.000000,0.000000,0.000000,0.000000,0.000000,0.000000,0.000000,0.000000,0.000000,,,,,,,,,,,,,,,,,,,,,,,,,,,,,,,,,,,,,,,,,,,,,,,,,,,,,,,,,,,,,,,,,,,,,,,,,,,,,,,,,,,,,,,,,,,,,,,,,,,,,,,,,,,,,,,,,,,,,,,,,,,,,,,
1597395155.806888,70.000000,0.000000,4210.384766,4210.641113,4211.282227,4212.692383,4210.512695,4210.641113,4211.794922,4210.000000,4220.128418,4217.692383,4265.641113,4954.487305,4216.153809,4221.025879,0.000000,3.000000,,,,0.000000,0.000000,0.000000,0.000000,0.000000,0.000000,0.000000,0.000000,0.000000,0.000000,0.000000,0.000000,0.000000,0.000000,0.000000,0.000000,35.000000,0.000000,8204.000000,8108.000000,8191.000000,12229.000000,8866.000000,7638.000000,8230.000000,8631.000000,8511.000000,,,,,,,,,,,,,,,,,,,,,,,,,,,,,,,,,,,,,,,,,,,,,,,,,,,,,,,,,,,,,,,,,,,,,,,,,,,,,,,,,,,,,,,,,,,,,,,,,,,,,,,,,,,,,,,,,,,,
1597395155.814772,71.000000,0.000000,4209.230957,4208.717773,4212.692383,4212.179688,4211.025879,4208.589844,4209.743652,4213.846191,4214.487305,4217.692383,4262.436035,4956.025879,4214.358887,4221.282227,0.000000,3.000000,,,,0.000000,0.000000,0.000000,0.000000,0.000000,0.000000,0.000000,0.000000,0.000000,0.000000,0.000000,0.000000,0.000000,0.000000,0.000000,0.000000,,,,,,,,,,,,,,,,,,,,,,,,,,,,,,,,,,,,,,,,,,,,,,,,,,,,,,,,,,0.019377,0.031061,0.040523,0.029524,0.032501,0.027001,0.025256,0.032469,0.026547,0.026269,0.033812,0.007040,0.016949,0.027791,0.024525,0.010624,0.024907,0.015176,0.009817,0.020518,0.035169,0.024672,0.019590,0.018500,0.009709,0.016105,0.037992,0.019834,0.014325,0.021514,0.035363,0.024565,0.013590,0.014600,0.019183,0.039646,0.045514,0.029875,0.034587,0.061440,0.007456,0.038026,0.017222,0.016339,0.015087,0.002848,0.001907,0.001357,0.000746,0.000478,0.029252,0.026928,0.011755,0.023757,0.025286,0.028848,0.019848,0.024828,0.032614,0.024635,0.025199,0.021052,0.028945,0.016138,0.017752,0.019825,0.019435,0.035644,0.017460,0.018786
1597395155.822655,72.000000,0.000000,4213.461426,4208.974121,4211.794922,4213.589844,4209.871582,4211.025879,4210.512695,4217.692383,4209.102539,4217.692383,4263.846191,4953.205078,4213.717773,4216.410156,0.000000,3.000000,,,,0.000000,0.000000,0.000000,0.000000,0.000000,0.000000,0.000000,0.000000,0.000000,0.000000,0.000000,0.000000,0.000000,0.000000,0.000000,0.000000,36.000000,0.000000,8208.000000,8107.000000,8199.000000,12227.000000,8850.000000,7619.000000,8236.000000,8626.000000,8512.000000,,,,,,,,,,,,,,,,,,,,,,,,,,,,,,,,,,,,,,,,,,,,,,,,,,,,,,,,,,,,,,,,,,,,,,,,,,,,,,,,,,,,,,,,,,,,,,,,,,,,,,,,,,,,,,,,,,,,
1597395155.830539,73.000000,0.000000,4212.436035,4208.461426,4212.820313,4214.487305,4208.974121,4210.512695,4210.641113,4214.102539,4212.692383,4217.692383,4268.717773,4956.538574,4213.974121,4216.153809,0.000000,3.000000,,,,0.000000,0.000000,0.000000,0.000000,0.000000,0.000000,0.000000,0.000000,0.000000,0.000000,0.000000,0.000000,0.000000,0.000000,0.000000,0.000000,,,,,,,,,,,,,,,,,,,,,,,,,,,,,,,,,,,,,,,,,,,,,,,,,,,,,,,,,,,,,,,,,,,,,,,,,,,,,,,,,,,,,,,,,,,,,,,,,,,,,,,,,,,,,,,,,,,,,,,,,,,,,,,
1597395155.838423,74.000000,0.000000,4210.000000,4210.384766,4215.256348,4213.333496,4213.333496,4208.589844,4208.333496,4208.077148,4218.717773,4217.692383,4268.205078,4955.256348,4213.974121,4219.743652,0.000000,3.000000,,,,0.000000,0.000000,0.000000,0.000000,0.000000,0.000000,0.000000,0.000000,0.000000,0.000000,0.000000,0.000000,0.000000,0.000000,0.000000,0.000000,37.000000,0.000000,8204.000000,8099.000000,8193.000000,12237.000000,8862.000000,7611.000000,8231.000000,8627.000000,8512.000000,,,,,,,,,,,,,,,,,,,,,,,,,,,,,,,,,,,,,,,,,,,,,,,,,,,,,,,,,,,,,,,,,,,,,,,,,,,,,,,,,,,,,,,,,,,,,,,,,,,,,,,,,,,,,,,,,,,,
1597395155.846307,75.000000,0.000000,4212.692383,4210.000000,4213.846191,4211.922852,4214.230957,4209.230957,4206.666504,4211.922852,4216.538574,4217.692383,4266.025879,4953.846191,4215.128418,4222.436035,0.000000,3.000000,,,,0.000000,0.000000,0.000000,0.000000,0.000000,0.000000,0.000000,0.000000,0.000000,0.000000,0.000000,0.000000,0.000000,0.000000,0.000000,0.000000,,,,,,,,,,,,,,,,,,,,,,,,,,,,,,,,,,,,,,,,,,,,,,,,,,,,,,,,,,,,,,,,,,,,,,,,,,,,,,,,,,,,,,,,,,,,,,,,,,,,,,,,,,,,,,,,,,,,,,,,,,,,,,,
1597395155.854091,76.000000,0.000000,4215.769043,4211.794922,4211.025879,4212.948730,4211.282227,4214.358887,4208.077148,4215.897461,4211.794922,4217.692383,4263.589844,4955.128418,4215.769043,4221.538574,0.000000,3.000000,,,,0.000000,0.000000,0.000000,0.000000,0.000000,0.000000,0.000000,0.000000,0.000000,0.000000,0.000000,0.000000,0.000000,0.000000,0.000000,0.000000,38.000000,0.000000,8201.000000,8101.000000,8194.000000,12231.000000,8811.000000,7605.000000,8231.000000,8629.000000,8513.000000,,,,,,,,,,,,,,,,,,,,,,,,,,,,,,,,,,,,,,,,,,,,,,,,,,,,,,,,,,,,,,,,,,,,,,,,,,,,,,,,,,,,,,,,,,,,,,,,,,,,,,,,,,,,,,,,,,,,
1597395155.861975,77.000000,0.000000,4213.589844,4212.692383,4214.358887,4215.128418,4208.333496,4212.820313,4208.589844,4213.333496,4213.589844,4217.692383,4264.615234,4957.820313,4214.230957,4218.846191,0.000000,3.000000,,,,0.000000,0.000000,0.000000,0.000000,0.000000,0.000000,0.000000,0.000000,0.000000,0.000000,0.000000,0.000000,0.000000,0.000000,0.000000,0.000000,,,,,,,,,,,,,,,,,,,,,,,,,,,,,,,,,,,,,,,,,,,,,,,,,,,,,,,,,,,,,,,,,,,,,,,,,,,,,,,,,,,,,,,,,,,,,,,,,,,,,,,,,,,,,,,,,,,,,,,,,,,,,,,
1597395155.869859,78.000000,0.000000,4212.436035,4213.717773,4213.077148,4213.333496,4210.384766,4210.000000,4208.974121,4213.077148,4216.153809,4217.692383,4266.666504,4951.666504,4212.051270,4218.205078,0.000000,3.000000,,,,0.000000,0.000000,0.000000,0.000000,0.000000,0.000000,0.000000,0.000000,0.000000,0.000000,0.000000,0.000000,0.000000,0.000000,0.000000,0.000000,39.000000,0.000000,8205.000000,8107.000000,8202.000000,12229.000000,8875.000000,7627.000000,8236.000000,8630.000000,8511.000000,,,,,,,,,,,,,,,,,,,,,,,,,,,,,,,,,,,,,,,,,,,,,,,,,,,,,,,,,,,,,,,,,,,,,,,,,,,,,,,,,,,,,,,,,,,,,,,,,,,,,,,,,,,,,,,,,,,,
1597395155.877743,79.000000,0.000000,4212.948730,4213.461426,4212.051270,4213.077148,4210.128418,4208.974121,4208.333496,4214.615234,4214.743652,4217.692383,4267.948730,4954.230957,4212.563965,4221.153809,0.000000,3.000000,,,,0.000000,0.000000,0.000000,0.000000,0.000000,0.000000,0.000000,0.000000,0.000000,0.000000,0.000000,0.000000,0.000000,0.000000,0.000000,0.000000,,,,,,,,,,,,,,,,,,,,,,,,,,,,,,,,,,,,,,,,,,,,,,,,,,,,,,,,,,,,,,,,,,,,,,,,,,,,,,,,,,,,,,,,,,,,,,,,,,,,,,,,,,,,,,,,,,,,,,,,,,,,,,,
1597395155.885627,80.000000,0.000000,4212.179688,4212.179688,4213.846191,4213.205078,4210.256348,4212.051270,4208.846191,4215.512695,4213.461426,4217.692383,4266.538574,4957.948730,4213.589844,4220.641113,0.000000,3.000000,,,,0.000000,0.000000,0.000000,0.000000,0.000000,0.000000,0.000000,0.000000,0.000000,0.000000,0.000000,0.000000,0.000000,0.000000,0.000000,0.000000,40.000000,0.000000,8203.000000,8102.000000,8191.000000,12235.000000,8832.000000,7616.000000,8231.000000,8626.000000,8513.000000,,,,,,,,,,,,,,,,,,,,,,,,,,,,,,,,,,,,,,,,,,,,,,,,,,,,,,,,,,,,,,,,,,,,,,,,,,,,,,,,,,,,,,,,,,,,,,,,,,,,,,,,,,,,,,,,,,,,
1597395155.893511,81.000000,0.000000,4209.871582,4210.897461,4213.717773,4211.666504,4210.512695,4211.922852,4209.102539,4214.871582,4214.230957,4217.692383,4268.846191,4955.897461,4212.692383,4218.205078,0.000000,3.000000,,,,0.000000,0.000000,0.000000,0.000000,0.000000,0.000000,0.000000,0.000000,0.000000,0.000000,0.000000,0.000000,0.000000,0.000000,0.000000,0.000000,,,,,,,,,,,,,,,,,,,,,,,,,,,,,,,,,,,,,,,,,,,,,,,,,,,,,,,,,,,,,,,,,,,,,,,,,,,,,,,,,,,,,,,,,,,,,,,,,,,,,,,,,,,,,,,,,,,,,,,,,,,,,,,
1597395155.901395,82.000000,0.000000,4208.974121,4212.948730,4211.410156,4213.589844,4211.025879,4211.666504,4209.487305,4213.333496,4216.025879,4217.692383,4266.666504,4950.512695,4212.563965,4219.102539,0.000000,3.000000,,,,0.000000,0.000000,0.000000,0.000000,0.000000,0.000000,0.000000,0.000000,0.000000,0.000000,0.000000,0.000000,0.000000,0.000000,0.000000,0.000000,41.000000,0.000000,8203.000000,8101.000000,8197.000000,12225.000000,8861.000000,7637.000000,8236.000000,8625.000000,8513.000000,,,,,,,,,,,,,,,,,,,,,,,,,,,,,,,,,,,,,,,,,,,,,,,,,,,,,,,,,,,,,,,,,,,,,,,,,,,,,,,,,,,,,,,,,,,,,,,,,,,,,,,,,,,,,,,,,,,,
1597395155.909279,83.000000,0.000000,4210.384766,4214.615234,4213.974121,4215.897461,4211.153809,4210.256348,4208.717773,4212.307617,4215.384766,4217.692383,4262.563965,4953.205078,4215.128418,4221.666504,0.000000,3.000000,,,,0.000000,0.000000,0.000000,0.000000,0.000000,0.000000,0.000000,0.000000,0.000000,0.000000,0.000000,0.000000,0.000000,0.000000,0.000000,0.000000,,,,,,,,,,,,,,,,,,,,,,,,,,,,,,,,,,,,,,,,,,,,,,,,,,,,,,,,,,,,,,,,,,,,,,,,,,,,,,,,,,,,,,,,,,,,,,,,,,,,,,,,,,,,,,,,,,,,,,,,,,,,,,,
1597395155.917163,84.000000,0.000000,4212.051270,4212.436035,4214.358887,4214.102539,4210.641113,4210.641113,4208.077148,4212.820313,4212.692383,4217.692383,4262.948730,4954.487305,4215.897461,4218.846191,0.000000,3.000000,,,,0.000000,0.000000,0.000000,0.000000,0.000000,0.000000,0.000000,0.000000,0.000000,0.000000,0.000000,0.000000,0.000000,0.000000,0.000000,0.000000,42.000000,0.000000,8205.000000,8100.000000,8193.000000,12225.000000,8805.000000,7615.000000,8231.000000,8628.000000,8508.000000,,,,,,,,,,,,,,,,,,,,,,,,,,,,,,,,,,,,,,,,,,,,,,,,,,,,,,,,,,,,,,,,,,,,,,,,,,,,,,,,,,,,,,,,,,,,,,,,,,,,,,,,,,,,,,,,,,,,
1597395155.924947,85.000000,0.000000,4213.333496,4211.153809,4212.948730,4215.000000,4210.256348,4211.922852,4208.205078,4212.436035,4211.794922,4217.692383,4262.820313,4952.820313,4215.000000,4217.179688,0.000000,3.000000,,,,0.000000,0.000000,0.000000,0.000000,0.000000,0.000000,0.000000,0.000000,0.000000,0.000000,0.000000,0.000000,0.000000,0.000000,0.000000,0.000000,,,,,,,,,,,,,,,,,,,,,,,,,,,,,,,,,,,,,,,,,,,,,,,,,,,,,,,,,,,,,,,,,,,,,,,,,,,,,,,,,,,,,,,,,,,,,,,,,,,,,,,,,,,,,,,,,,,,,,,,,,,,,,,
1597395155.932831,86.000000,0.000000,4212.820313,4211.794922,4213.205078,4216.922852,4210.128418,4211.922852,4210.384766,4210.128418,4215.384766,4217.692383,4261.410156,4953.717773,4213.333496,4217.563965,0.000000,3.000000,,,,0.000000,0.000000,0.000000,0.000000,0.000000,0.000000,0.000000,0.000000,0.000000,0.000000,0.000000,0.000000,0.000000,0.000000,0.000000,0.000000,43.000000,0.000000,8204.000000,8097.000000,8199.000000,12230.000000,8867.000000,7623.000000,8235.000000,8626.000000,8510.000000,,,,,,,,,,,,,,,,,,,,,,,,,,,,,,,,,,,,,,,,,,,,,,,,,,,,,,,,,,,,,,,,,,,,,,,,,,,,,,,,,,,,,,,,,,,,,,,,,,,,,,,,,,,,,,,,,,,,
1597395155.940715,87.000000,0.000000,4214.358887,4209.358887,4213.077148,4213.974121,4210.256348,4210.384766,4211.922852,4210.128418,4217.307617,4217.692383,4262.820313,4953.717773,4213.205078,4216.153809,0.000000,3.000000,,,,0.000000,0.000000,0.000000,0.000000,0.000000,0.000000,0.000000,0.000000,0.000000,0.000000,0.000000,0.000000,0.000000,0.000000,0.000000,0.000000,,,,,,,,,,,,,,,,,,,,,,,,,,,,,,,,,,,,,,,,,,,,,,,,,,,,,,,,,,0.021474,0.035144,0.039118,0.031261,0.033802,0.030866,0.028356,0.031067,0.024559,0.025068,0.037046,0.009042,0.017080,0.025937,0.023191,0.008279,0.024308,0.016146,0.009948,0.019984,0.040808,0.028096,0.016227,0.019452,0.011029,0.017596,0.032049,0.019800,0.014927,0.020973,0.037074,0.020916,0.014061,0.011543,0.019661,0.042416,0.046496,0.023018,0.036295,0.061201,0.008915,0.037216,0.014530,0.019073,0.018040,0.002981,0.001839,0.001283,0.000687,0.000434,0.028006,0.027772,0.011858,0.028113,0.028599,0.040069,0.021508,0.023363,0.030063,0.022609,0.026395,0.019171,0.030022,0.015608,0.017346,0.022028,0.018548,0.030714,0.017012,0.016434
1597395155.948599,88.000000,0.000000,4215.384766,4205.769043,4211.922852,4210.769043,4209.358887,4207.563965,4208.589844,4208.717773,4215.769043,4217.692383,4267.563965,4955.256348,4213.717773,4215.000000,0.000000,3.000000,,,,0.000000,0.000000,0.000000,0.000000,0.000000,0.000000,0.000000,0.000000,0.000000,0.000000,0.000000,0.000000,0.000000,0.000000,0.000000,0.000000,44.000000,0.000000,8204.000000,8100.000000,8195.000000,12233.000000,8852.000000,7624.000000,8230.000000,8602.000000,8511.000000,,,,,,,,,,,,,,,,,,,,,,,,,,,,,,,,,,,,,,,,,,,,,,,,,,,,,,,,,,,,,,,,,,,,,,,,,,,,,,,,,,,,,,,,,,,,,,,,,,,,,,,,,,,,,,,,,,,,
1597395155.956483,89.000000,0.000000,4212.692383,4209.230957,4211.282227,4213.333496,4208.846191,4209.871582,4207.692383,4210.512695,4215.897461,4217.692383,4265.897461,4953.846191,4214.871582,4216.922852,0.000000,3.000000,,,,0.000000,0.000000,0.000000,0.000000,0.000000,0.000000,0.000000,0.000000,0.000000,0.000000,0.000000,0.000000,0.000000,0.000000,0.000000,0.000000,,,,,,,,,,,,,,,,,,,,,,,,,,,,,,,,,,,,,,,,,,,,,,,,,,,,,,,,,,,,,,,,,,,,,,,,,,,,,,,,,,,,,,,,,,,,,,,,,,,,,,,,,,,,,,,,,,,,,,,,,,,,,,,
1597395155.964367,90.000000,0.000000,4208.333496,4210.641113,4213.205078,4215.384766,4210.512695,4210.897461,4209.487305,4212.179688,4216.025879,4217.692383,4264.102539,4955.000000,4216.025879,4219.102539,0.000000,3.000000,,,,0.000000,0.000000,0.000000,0.000000,0.000000,0.000000,0.000000,0.000000,0.000000,0.000000,0.000000,0.000000,0.000000,0.000000,0.000000,0.000000,45.000000,0.000000,8207.000000,8106.000000,8201.000000,12234.000000,8848.000000,7614.000000,8233.000000,8626.000000,8508.000000,,,,,,,,,,,,,,,,,,,,,,,,,,,,,,,,,,,,,,,,,,,,,,,,,,,,,,,,,,,,,,,,,,,,,,,,,,,,,,,,,,,,,,,,,,,,,,,,,,,,,,,,,,,,,,,,,,,,
1597395155.972251,91.000000,0.000000,4210.512695,4213.205078,4211.282227,4213.333496,4210.769043,4209.487305,4209.230957,4208.846191,4213.846191,4217.692383,4262.051270,4954.615234,4215.384766,4218.846191,0.000000,3.000000,,,,0.000000,0.000000,0.000000,0.000000,0.000000,0.000000,0.000000,0.000000,0.000000,0.000000,0.000000,0.000000,0.000000,0.000000,0.000000,0.000000,,,,,,,,,,,,,,,,,,,,,,,,,,,,,,,,,,,,,,,,,,,,,,,,,,,,,,,,,,,,,,,,,,,,,,,,,,,,,,,,,,,,,,,,,,,,,,,,,,,,,,,,,,,,,,,,,,,,,,,,,,,,,,,
1597395155.980135,92.000000,0.000000,4213.461426,4214.487305,4210.512695,4211.410156,4208.717773,4208.461426,4208.333496,4209.871582,4213.333496,4217.692383,4263.974121,4955.000000,4213.205078,4219.102539,0.000000,3.000000,,,,0.000000,0.000000,0.000000,0.000000,0.000000,0.000000,0.000000,0.000000,0.000000,0.000000,0.000000,0.000000,0.000000,0.000000,0.000000,0.000000,46.000000,0.000000,8204.000000,8103.000000,8197.000000,12235.000000,8851.000000,7611.000000,8233.000000,8628.000000,8512.000000,,,,,,,,,,,,,,,,,,,,,,,,,,,,,,,,,,,,,,,,,,,,,,,,,,,,,,,,,,,,,,,,,,,,,,,,,,,,,,,,,,,,,,,,,,,,,,,,,,,,,,,,,,,,,,,,,,,,
1597395155.988020,93.000000,0.000000,4213.205078,4213.717773,4211.410156,4211.538574,4210.512695,4211.794922,4208.846191,4215.000000,4214.871582,4217.692383,4266.922852,4951.410156,4215.000000,4218.717773,0.000000,3.000000,,,,0.000000,0.000000,0.000000,0.000000,0.000000,0.000000,0.000000,0.000000,0.000000,0.000000,0.000000,0.000000,0.000000,0.000000,0.000000,0.000000,,,,,,,,,,,,,,,,,,,,,,,,,,,,,,,,,,,,,,,,,,,,,,,,,,,,,,,,,,,,,,,,,,,,,,,,,,,,,,,,,,,,,,,,,,,,,,,,,,,,,,,,,,,,,,,,,,,,,,,,,,,,,,,
1597395155.996004,94.000000,0.000000,4214.358887,4211.410156,4213.205078,4212.307617,4211.538574,4210.769043,4207.820313,4216.153809,4215.384766,4217.692383,4267.051270,4953.589844,4216.538574,4219.871582,0.000000,3.000000,,,,0.000000,0.000000,0.000000,0.000000,0.000000,0.000000,0.000000,0.000000,0.000000,0.000000,0.000000,0.000000,0.000000,0.000000,0.000000,0.000000,47.000000,0.000000,8203.000000,8109.000000,8199.000000,12243.000000,8847.000000,7604.000000,8233.000000,8628.000000,8511.000000,,,,,,,,,,,,,,,,,,,,,,,,,,,,,,,,,,,,,,,,,,,,,,,,,,,,,,,,,,,,,,,,,,,,,,,,,,,,,,,,,,,,,,,,,,,,,,,,,,,,,,,,,,,,,,,,,,,,
1597395156.003888,95.000000,0.000000,4213.205078,4213.846191,4212.307617,4212.692383,4211.794922,4212.179688,4210.384766,4214.743652,4216.153809,4217.692383,4267.307617,4954.358887,4214.102539,4219.871582,0.000000,3.000000,,,,0.000000,0.000000,0.000000,0.000000,0.000000,0.000000,0.000000,0.000000,0.000000,0.000000,0.000000,0.000000,0.000000,0.000000,0.000000,0.000000,,,,,,,,,,,,,,,,,,,,,,,,,,,,,,,,,,,,,,,,,,,,,,,,,,,,,,,,,,,,,,,,,,,,,,,,,,,,,,,,,,,,,,,,,,,,,,,,,,,,,,,,,,,,,,,,,,,,,,,,,,,,,,,
1597395156.011772,96.000000,0.000000,4208.205078,4211.282227,4212.436035,4214.102539,4211.538574,4212.692383,4212.948730,4214.487305,4215.897461,4217.692383,4269.487305,4955.384766,4213.846191,4219.102539,0.000000,3.000000,,,,0.000000,0.000000,0.000000,0.000000,0.000000,0.000000,0.000000,0.000000,0.000000,0.000000,0.000000,0.000000,0.000000,0.000000,0.000000,0.000000,48.000000,0.000000,8205.000000,8098.000000,8198.000000,12224.000000,8832.000000,7625.000000,8231.000000,8628.000000,8511.000000,,,,,,,,,,,,,,,,,,,,,,,,,,,,,,,,,,,,,,,,,,,,,,,,,,,,,,,,,,,,,,,,,,,,,,,,,,,,,,,,,,,,,,,,,,,,,,,,,,,,,,,,,,,,,,,,,,,,
1597395156.019656,97.000000,0.000000,4209.358887,4210.897461,4211.794922,4213.974121,4211.794922,4212.563965,4210.641113,4212.179688,4213.974121,4217.692383,4266.666504,4953.717773,4214.615234,4217.179688,0.000000,3.000000,,,,0.000000,0.000000,0.000000,0.000000,0.000000,0.000000,0.000000,0.000000,0.000000,0.000000,0.000000,0.000000,0.000000,0.000000,0.000000,0.000000,,,,,,,,,,,,,,,,,,,,,,,,,,,,,,,,,,,,,,,,,,,,,,,,,,,,,,,,,,,,,,,,,,,,,,,,,,,,,,,,,,,,,,,,,,,,,,,,,,,,,,,,,,,,,,,,,,,,,,,,,,,,,,,
1597395156.027541,98.000000,0.000000,4212.692383,4214.871582,4212.051270,4214.871582,4209.230957,4211.538574,4208.333496,4210.641113,4213.974121,4217.692383,4264.743652,4955.000000,4212.820313,4217.692383,0.000000,3.000000,,,,0.000000,0.000000,0.000000,0.000000,0.000000,0.000000,0.000000,0.000000,0.000000,0.000000,0.000000,0.000000,0.000000,0.000000,0.000000,0.000000,49.000000,0.000000,8209.000000,8101.000000,8201.000000,12230.000000,8872.000000,7632.000000,8234.000000,8628.000000,8512.000000,,,,,,,,,,,,,,,,,,,,,,,,,,,,,,,,,,,,,,,,,,,,,,,,,,,,,,,,,,,,,,,,,,,,,,,,,,,,,,,,,,,,,,,,,,,,,,,,,,,,,,,,,,,,,,,,,,,,
1597395156.035425,99.000000,0.000000,4213.077148,4212.307617,4210.897461,4215.384766,4209.743652,4212.820313,4210.384766,4215.384766,4215.128418,4217.692383,4265.384766,4953.333496,4212.307617,4216.794922,0.000000,3.000000,,,,0.000000,0.000000,0.000000,0.000000,0.000000,0.000000,0.000000,0.000000,0.000000,0.000000,0.000000,0.000000,0.000000,0.000000,0.000000,0.000000,,,,,,,,,,,,,,,,,,,,,,,,,,,,,,,,,,,,,,,,,,,,,,,,,,,,,,,,,,,,,,,,,,,,,,,,,,,,,,,,,,,,,,,,,,,,,,,,,,,,,,,,,,,,,,,,,,,,,,,,,,,,,,,
1597395156.043309,100.000000,0.000000,4211.410156,4209.230957,4212.692383,4213.205078,4212.436035,4211.666504,4209.102539,4216.025879,4214.743652,4217.692383,4266.153809,4954.615234,4212.307617,4216.794922,0.000000,3.000000,,,,0.000000,0.000000,0.000000,0.000000,0.000000,0.000000,0.000000,0.000000,0.000000,0.000000,0.000000,0.000000,0.000000,0.000000,0.000000,0.000000,50.000000,0.000000,8205.000000,8105.000000,8201.000000,12236.000000,8872.000000,7608.000000,8231.000000,8625.000000,8512.000000,,,,,,,,,,,,,,,,,,,,,,,,,,,,,,,,,,,,,,,,,,,,,,,,,,,,,,,,,,,,,,,,,,,,,,,,,,,,,,,,,,,,,,,,,,,,,,,,,,,,,,,,,,,,,,,,,,,,
1597395156.051194,101.000000,0.000000,4210.897461,4212.948730,4212.948730,4211.538574,4213.974121,4210.512695,4207.563965,4211.153809,4215.128418,4217.692383,4265.000000,4954.487305,4213.846191,4217.820313,0.000000,3.000000,,,,0.000000,0.000000,0.000000,0.000000,0.000000,0.000000,0.000000,0.000000,0.000000,0.000000,0.000000,0.000000,0.000000,0.000000,0.000000,0.000000,,,,,,,,,,,,,,,,,,,,,,,,,,,,,,,,,,,,,,,,,,,,,,,,,,,,,,,,,,,,,,,,,,,,,,,,,,,,,,,,,,,,,,,,,,,,,,,,,,,,,,,,,,,,,,,,,,,,,,,,,,,,,,,
1597395156.059078,102.000000,0.000000,4215.000000,4212.948730,4211.410156,4212.179688,4211.153809,4209.871582,4208.461426,4209.230957,4217.179688,4217.692383,4267.051270,4953.461426,4218.717773,4218.461426,0.000000,3.000000,,,,0.000000,0.000000,0.000000,0.000000,0.000000,0.000000,0.000000,0.000000,0.000000,0.000000,0.000000,0.000000,0.000000,0.000000,0.000000,0.000000,51.000000,0.000000,8207.000000,8105.000000,8194.000000,12236.000000,8855.000000,7621.000000,8232.000000,8627.000000,8515.000000,,,,,,,,,,,,,,,,,,,,,,,,,,,,,,,,,,,,,,,,,,,,,,,,,,,,,,,,,,,,,,,,,,,,,,,,,,,,,,,,,,,,,,,,,,,,,,,,,,,,,,,,,,,,,,,,,,,,
1597395156.066962,103.000000,0.000000,4217.051270,4210.897461,4211.153809,4212.051270,4209.871582,4210.512695,4210.128418,4213.205078,4217.051270,4217.692383,4267.563965,4954.615234,4219.358887,4216.282227,0.000000,3.000000,,,,0.000000,0.000000,0.000000,0.000000,0.000000,0.000000,0.000000,0.000000,0.000000,0.000000,0.000000,0.000000,0.000000,0.000000,0.000000,0.000000,,,,,,,,,,,,,,,,,,,,,,,,,,,,,,,,,,,,,,,,,,,,,,,,,,,,,,,,,,0.023435,0.040202,0.037306,0.031500,0.035695,0.034290,0.030635,0.028100,0.022994,0.025223,0.037484,0.011588,0.016757,0.022825,0.021600,0.006613,0.021994,0.018002,0.010043,0.018248,0.043257,0.032611,0.012387,0.020579,0.013115,0.019736,0.027314,0.022299,0.015711,0.020314,0.037061,0.016997,0.014089,0.009460,0.019495,0.043024,0.045139,0.017779,0.036859,0.059579,0.012123,0.037335,0.012627,0.022380,0.022163,0.002857,0.001584,0.001069,0.000555,0.000344,0.026592,0.030847,0.012453,0.034100,0.032400,0.049021,0.024327,0.021520,0.027639,0.021536,0.026591,0.017252,0.029913,0.014505,0.016831,0.024266,0.016580,0.025140,0.016524,0.015024
1597395156.074746,104.000000,0.000000,4214.358887,4213.333496,4213.333496,4214.871582,4212.692383,4210.897461,4211.153809,4215.769043,4214.871582,4217.692383,4266.666504,4958.589844,4216.666504,4216.922852,0.000000,3.000000,,,,0.000000,0.000000,0.000000,0.000000,0.000000,0.000000,0.000000,0.000000,0.000000,0.000000,0.000000,0.000000,0.000000,0.000000,0.000000,0.000000,52.000000,0.000000,8208.000000,8100.000000,8188.000000,12226.000000,8842.000000,7629.000000,8232.000000,8624.000000,8514.000000,,,,,,,,,,,,,,,,,,,,,,,,,,,,,,,,,,,,,,,,,,,,,,,,,,,,,,,,,,,,,,,,,,,,,,,,,,,,,,,,,,,,,,,,,,,,,,,,,,,,,,,,,,,,,,,,,,,,
1597395156.082630,105.000000,0.000000,4213.205078,4213.077148,4213.333496,4215.641113,4211.538574,4209.615234,4209.743652,4213.974121,4215.000000,4217.692383,4266.153809,4957.179688,4214.743652,4219.358887,0.000000,3.000000,,,,0.000000,0.000000,0.000000,0.000000,0.000000,0.000000,0.000000,0.000000,0.000000,0.000000,0.000000,0.000000,0.000000,0.000000,0.000000,0.000000,,,,,,,,,,,,,,,,,,,,,,,,,,,,,,,,,,,,,,,,,,,,,,,,,,,,,,,,,,,,,,,,,,,,,,,,,,,,,,,,,,,,,,,,,,,,,,,,,,,,,,,,,,,,,,,,,,,,,,,,,,,,,,,
1597395156.090514,106.000000,0.000000,4217.051270,4212.307617,4211.282227,4211.153809,4209.871582,4209.487305,4207.692383,4213.077148,4216.153809,4217.692383,4264.358887,4953.077148,4214.487305,4217.948730,0.000000,3.000000,,,,0.000000,0.000000,0.000000,0.000000,0.000000,0.000000,0.000000,0.000000,0.000000,0.000000,0.000000,0.000000,0.000000,0.000000,0.000000,0.000000,53.000000,0.000000,8202.000000,8106.000000,8191.000000,12231.000000,8853.000000,7621.000000,8230.000000,8630.000000,8512.000000,,,,,,,,,,,,,,,,,,,,,,,,,,,,,,,,,,,,,,,,,,,,,,,,,,,,,,,,,,,,,,,,,,,,,,,,,,,,,,,,,,,,,,,,,,,,,,,,,,,,,,,,,,,,,,,,,,,,
1597395156.098398,107.000000,0.000000,4214.230957,4210.897461,4210.512695,4210.897461,4211.794922,4209.743652,4208.846191,4213.717773,4215.256348,4217.692383,4265.512695,4956.282227,4214.871582,4215.256348,0.000000,3.000000,,,,0.000000,0.000000,0.000000,0.000000,0.000000,0.000000,0.000000,0.000000,0.000000,0.000000,0.000000,0.000000,0.000000,0.000000,0.000000,0.000000,,,,,,,,,,,,,,,,,,,,,,,,,,,,,,,,,,,,,,,,,,,,,,,,,,,,,,,,,,,,,,,,,,,,,,,,,,,,,,,,,,,,,,,,,,,,,,,,,,,,,,,,,,,,,,,,,,,,,,,,,,,,,,,
1597395156.106282,108.000000,0.000000,4210.769043,4211.025879,4209.871582,4213.846191,4211.025879,4210.512695,4211.153809,4216.025879,4215.641113,4217.692383,4267.307617,4954.615234,4213.717773,4218.205078,0.000000,3.000000,,,,0.000000,0.000000,0.000000,0.000000,0.000000,0.000000,0.000000,0.000000,0.000000,0.000000,0.000000,0.000000,0.000000,0.000000,0.000000,0.000000,54.000000,0.000000,8194.000000,8106.000000,8193.000000,12227.000000,8851.000000,7625.000000,8230.000000,8625.000000,8510.000000,,,,,,,,,,,,,,,,,,,,,,,,,,,,,,,,,,,,,,,,,,,,,,,,,,,,,,,,,,,,,,,,,,,,,,,,,,,,,,,,,,,,,,,,,,,,,,,,,,,,,,,,,,,,,,,,,,,,
1597395156.114166,109.000000,0.000000,4213.589844,4210.384766,4211.538574,4211.794922,4208.461426,4209.487305,4209.487305,4214.743652,4216.666504,4217.692383,4268.846191,4954.358887,4212.051270,4220.897461,0.000000,3.000000,,,,0.000000,0.000000,0.000000,0.000000,0.000000,0.000000,0.000000,0.000000,0.000000,0.000000,0.000000,0.000000,0.000000,0.000000,0.000000,0.000000,,,,,,,,,,,,,,,,,,,,,,,,,,,,,,,,,,,,,,,,,,,,,,,,,,,,,,,,,,,,,,,,,,,,,,,,,,,,,,,,,,,,,,,,,,,,,,,,,,,,,,,,,,,,,,,,,,,,,,,,,,,,,,,
1597395156.122050,110.000000,0.000000,4215.000000,4211.538574,4211.410156,4211.410156,4212.948730,4209.102539,4208.333496,4210.384766,4215.000000,4217.692383,4264.615234,4954.615234,4212.820313,4217.307617,0.000000,3.000000,,,,0.000000,0.000000,0.000000,0.000000,0.000000,0.000000,0.000000,0.000000,0.000000,0.000000,0.000000,0.000000,0.000000,0.000000,0.000000,0.000000,55.000000,0.000000,8201.000000,8099.000000,8200.000000,12227.000000,8841.000000,7624.000000,8233.000000,8631.000000,8512.000000,,,,,,,,,,,,,,,,,,,,,,,,,,,,,,,,,,,,,,,,,,,,,,,,,,,,,,,,,,,,,,,,,,,,,,,,,,,,,,,,,,,,,,,,,,,,,,,,,,,,,,,,,,,,,,,,,,,,
1597395156.129934,111.000000,0.000000,4213.589844,4210.897461,4212.563965,4215.000000,4214.743652,4207.051270,4210.000000,4210.769043,4213.333496,4217.692383,4265.384766,4955.512695,4213.077148,4216.538574,0.000000,3.000000,,,,0.000000,0.000000,0.000000,0.000000,0.000000,0.000000,0.000000,0.000000,0.000000,0.000000,0.000000,0.000000,0.000000,0.000000,0.000000,0.000000,,,,,,,,,,,,,,,,,,,,,,,,,,,,,,,,,,,,,,,,,,,,,,,,,,,,,,,,,,,,,,,,,,,,,,,,,,,,,,,,,,,,,,,,,,,,,,,,,,,,,,,,,,,,,,,,,,,,,,,,,,,,,,,
1597395156.137818,112.000000,0.000000,4213.461426,4212.307617,4211.410156,4214.102539,4212.051270,4212.307617,4212.051270,4214.358887,4214.871582,4217.692383,4267.692383,4952.051270,4210.769043,4219.871582,0.000000,3.000000,,,,0.000000,0.000000,0.000000,0.000000,0.000000,0.000000,0.000000,0.000000,0.000000,0.000000,0.000000,0.000000,0.000000,0.000000,0.000000,0.000000,56.000000,0.000000,8198.000000,8105.000000,8196.000000,12237.000000,8863.000000,7623.000000,8234.000000,8629.000000,8510.000000,,,,,,,,,,,,,,,,,,,,,,,,,,,,,,,,,,,,,,,,,,,,,,,,,,,,,,,,,,,,,,,,,,,,,,,,,,,,,,,,,,,,,,,,,,,,,,,,,,,,,,,,,,,,,,,,,,,,
1597395156.145803,113.000000,0.000000,4211.922852,4210.256348,4209.102539,4212.051270,4209.615234,4211.794922,4209.743652,4211.794922,4215.256348,4217.692383,4266.538574,4956.538574,4213.846191,4218.846191,0.000000,3.000000,,,,0.000000,0.000000,0.000000,0.000000,0.000000,0.000000,0.000000,0.000000,0.000000,0.000000,0.000000,0.000000,0.000000,0.000000,0.000000,0.000000,,,,,,,,,,,,,,,,,,,,,,,,,,,,,,,,,,,,,,,,,,,,,,,,,,,,,,,,,,,,,,,,,,,,,,,,,,,,,,,,,,,,,,,,,,,,,,,,,,,,,,,,,,,,,,,,,,,,,,,,,,,,,,,
1597395156.153687,114.000000,0.000000,4211.666504,4209.230957,4210.256348,4214.102539,4208.846191,4208.077148,4207.820313,4209.358887,4215.000000,4217.692383,4262.179688,4954.487305,4216.410156,4215.384766,0.000000,3.000000,,,,0.000000,0.000000,0.000000,0.000000,0.000000,0.000000,0.000000,0.000000,0.000000,0.000000,0.000000,0.000000,0.000000,0.000000,0.000000,0.000000,57.000000,0.000000,8210.000000,8100.000000,8199.000000,12236.000000,8854.000000,7625.000000,8231.000000,8625.000000,8513.000000,,,,,,,,,,,,,,,,,,,,,,,,,,,,,,,,,,,,,,,,,,,,,,,,,,,,,,,,,,,,,,,,,,,,,,,,,,,,,,,,,,,,,,,,,,,,,,,,,,,,,,,,,,,,,,,,,,,,
1597395156.161571,115.000000,0.000000,4211.153809,4207.692383,4214.871582,4214.102539,4208.974121,4207.563965,4208.974121,4211.666504,4215.769043,4217.692383,4262.692383,4952.436035,4213.589844,4218.974121,0.000000,3.000000,,,,0.000000,0.000000,0.000000,0.000000,0.000000,0.000000,0.000000,0.000000,0.000000,0.000000,0.000000,0.000000,0.000000,0.000000,0.000000,0.000000,,,,,,,,,,,,,,,,,,,,,,,,,,,,,,,,,,,,,,,,,,,,,,,,,,,,,,,,,,,,,,,,,,,,,,,,,,,,,,,,,,,,,,,,,,,,,,,,,,,,,,,,,,,,,,,,,,,,,,,,,,,,,,,
1597395156.169455,116.000000,0.000000,4210.897461,4210.128418,4210.897461,4212.051270,4212.692383,4211.282227,4212.307617,4211.282227,4216.025879,4217.692383,4264.487305,4954.230957,4211.794922,4219.743652,0.000000,3.000000,,,,0.000000,0.000000,0.000000,0.000000,0.000000,0.000000,0.000000,0.000000,0.000000,0.000000,0.000000,0.000000,0.000000,0.000000,0.000000,0.000000,58.000000,0.000000,8203.000000,8102.000000,8199.000000,12240.000000,8843.000000,7609.000000,8231.000000,8626.000000,8514.000000,,,,,,,,,,,,,,,,,,,,,,,,,,,,,,,,,,,,,,,,,,,,,,,,,,,,,,,,,,,,,,,,,,,,,,,,,,,,,,,,,,,,,,,,,,,,,,,,,,,,,,,,,,,,,,,,,,,,
1597395156.177340,117.000000,0.000000,4212.563965,4214.487305,4207.563965,4214.615234,4211.922852,4208.717773,4210.384766,4210.256348,4215.512695,4217.692383,4264.358887,4957.948730,4213.333496,4217.692383,0.000000,3.000000,,,,0.000000,0.000000,0.000000,0.000000,0.000000,0.000000,0.000000,0.000000,0.000000,0.000000,0.000000,0.000000,0.000000,0.000000,0.000000,0.000000,,,,,,,,,,,,,,,,,,,,,,,,,,,,,,,,,,,,,,,,,,,,,,,,,,,,,,,,,,,,,,,,,,,,,,,,,,,,,,,,,,,,,,,,,,,,,,,,,,,,,,,,,,,,,,,,,,,,,,,,,,,,,,,
1597395156.185224,118.000000,0.000000,4215.641113,4215.512695,4210.769043,4215.641113,4212.692383,4209.102539,4207.307617,4215.641113,4216.538574,4217.692383,4260.512695,4956.538574,4213.333496,4219.230957,0.000000,3.000000,,,,0.000000,0.000000,0.000000,0.000000,0.000000,0.000000,0.000000,0.000000,0.000000,0.000000,0.000000,0.000000,0.000000,0.000000,0.000000,0.000000,59.000000,0.000000,8203.000000,8101.000000,8191.000000,12225.000000,8838.000000,7628.000000,8232.000000,8626.000000,8511.000000,,,,,,,,,,,,,,,,,,,,,,,,,,,,,,,,,,,,,,,,,,,,,,,,,,,,,,,,,,,,,,,,,,,,,,,,,,,,,,,,,,,,,,,,,,,,,,,,,,,,,,,,,,,,,,,,,,,,
1597395156.193108,119.000000,0.000000,4212.179688,4211.794922,4212.948730,4212.948730,4214.743652,4212.307617,4210.128418,4217.307617,4216.666504,4217.692383,4261.794922,4956.282227,4212.820313,4219.743652,0.000000,3.000000,,,,0.000000,0.000000,0.000000,0.000000,0.000000,0.000000,0.000000,0.000000,0.000000,0.000000,0.000000,0.000000,0.000000,0.000000,0.000000,0.000000,,,,,,,,,,,,,,,,,,,,,,,,,,,,,,,,,,,,,,,,,,,,,,,,,,,,,,,,,,0.023898,0.047304,0.036923,0.030845,0.037658,0.037304,0.032303,0.024506,0.022089,0.026549,0.035505,0.014597,0.015894,0.019465,0.020198,0.006044,0.018756,0.020262,0.010073,0.015856,0.041617,0.036463,0.009543,0.021215,0.015459,0.022053,0.025095,0.026139,0.016545,0.020088,0.034942,0.013736,0.013644,0.008618,0.018707,0.041541,0.041870,0.014670,0.035622,0.056721,0.015620,0.037322,0.011995,0.025857,0.027071,0.002499,0.001217,0.000783,0.000390,0.000236,0.025129,0.039230,0.013883,0.040081,0.035788,0.052561,0.025434,0.019308,0.026144,0.021977,0.025294,0.015183,0.028768,0.013356,0.016377,0.026007,0.014698,0.019690,0.016678,0.014766
1597395156.200992,120.000000,0.000000,4209.230957,4211.666504,4210.897461,4211.794922,4212.948730,4210.384766,4215.128418,4213.077148,4212.307617,4217.692383,4267.436035,4957.307617,4212.948730,4216.538574,0.000000,3.000000,,,,0.000000,0.000000,0.000000,0.000000,0.000000,0.000000,0.000000,0.000000,0.000000,0.000000,0.000000,0.000000,0.000000,0.000000,0.000000,0.000000,60.000000,0.000000,8204.000000,8100.000000,8196.000000,12223.000000,8827.000000,7624.000000,8231.000000,8625.000000,8512.000000,,,,,,,,,,,,,,,,,,,,,,,,,,,,,,,,,,,,,,,,,,,,,,,,,,,,,,,,,,,,,,,,,,,,,,,,,,,,,,,,,,,,,,,,,,,,,,,,,,,,,,,,,,,,,,,,,,,,
1597395156.208877,121.000000,0.000000,4212.051270,4213.974121,4211.282227,4213.846191,4210.128418,4207.820313,4213.461426,4213.461426,4210.000000,4217.692383,4269.358887,4959.102539,4213.333496,4218.846191,0.000000,3.000000,,,,0.000000,0.000000,0.000000,0.000000,0.000000,0.000000,0.000000,0.000000,0.000000,0.000000,0.000000,0.000000,0.000000,0.000000,0.000000,0.000000,,,,,,,,,,,,,,,,,,,,,,,,,,,,,,,,,,,,,,,,,,,,,,,,,,,,,,,,,,,,,,,,,,,,,,,,,,,,,,,,,,,,,,,,,,,,,,,,,,,,,,,,,,,,,,,,,,,,,,,,,,,,,,,
1597395156.216761,122.000000,0.000000,4211.153809,4213.589844,4213.205078,4213.333496,4210.128418,4211.794922,4209.615234,4216.153809,4214.358887,4217.692383,4265.769043,4956.538574,4213.461426,4221.025879,0.000000,3.000000,,,,0.000000,0.000000,0.000000,0.000000,0.000000,0.000000,0.000000,0.000000,0.000000,0.000000,0.000000,0.000000,0.000000,0.000000,0.000000,0.000000,61.000000,0.000000,8202.000000,8105.000000,8201.000000,12237.000000,8864.000000,7624.000000,8232.000000,8628.000000,8510.000000,,,,,,,,,,,,,,,,,,,,,,,,,,,,,,,,,,,,,,,,,,,,,,,,,,,,,,,,,,,,,,,,,,,,,,,,,,,,,,,,,,,,,,,,,,,,,,,,,,,,,,,,,,,,,,,,,,,,
1597395156.224545,123.000000,0.000000,4211.282227,4214.230957,4212.692383,4211.153809,4209.358887,4215.128418,4209.358887,4212.307617,4217.436035,4217.692383,4264.743652,4952.820313,4213.333496,4219.358887,0.000000,3.000000,,,,0.000000,0.000000,0.000000,0.000000,0.000000,0.000000,0.000000,0.000000,0.000000,0.000000,0.000000,0.000000,0.000000,0.000000,0.000000,0.000000,,,,,,,,,,,,,,,,,,,,,,,,,,,,,,,,,,,,,,,,,,,,,,,,,,,,,,,,,,,,,,,,,,,,,,,,,,,,,,,,,,,,,,,,,,,,,,,,,,,,,,,,,,,,,,,,,,,,,,,,,,,,,,,
1597395156.232429,124.000000,0.000000,4212.563965,4211.922852,4211.666504,4211.410156,4209.102539,4212.051270,4211.538574,4211.025879,4215.641113,4217.692383,4266.922852,4953.974121,4211.794922,4218.846191,0.000000,3.000000,,,,0.000000,0.000000,0.000000,0.000000,0.000000,0.000000,0.000000,0.000000,0.000000,0.000000,0.000000,0.000000,0.000000,0.000000,0.000000,0.000000,62.000000,0.000000,8201.000000,8099.000000,8191.000000,12226.000000,8839.000000,7628.000000,8234.000000,8628.000000,8512.000000,,,,,,,,,,,,,,,,,,,,,,,,,,,,,,,,,,,,,,,,,,,,,,,,,,,,,,,,,,,,,,,,,,,,,,,,,,,,,,,,,,,,,,,,,,,,,,,,,,,,,,,,,,,,,,,,,,,,
1597395156.240313,125.000000,0.000000,4212.307617,4211.025879,4212.436035,4214.102539,4211.282227,4210.256348,4211.538574,4213.589844,4215.512695,4217.692383,4266.794922,4956.025879,4211.410156,4220.256348,0.000000,3.000000,,,,0.000000,0.000000,0.000000,0.000000,0.000000,0.000000,0.000000,0.000000,0.000000,0.000000,0.000000,0.000000,0.000000,0.000000,0.000000,0.000000,,,,,,,,,,,,,,,,,,,,,,,,,,,,,,,,,,,,,,,,,,,,,,,,,,,,,,,,,,,,,,,,,,,,,,,,,,,,,,,,,,,,,,,,,,,,,,,,,,,,,,,,,,,,,,,,,,,,,,,,,,,,,,,
1597395156.248197,126.000000,0.000000,4213.461426,4212.563965,4215.897461,4215.256348,4209.230957,4210.256348,4209.743652,4213.717773,4216.410156,4217.692383,4265.512695,4958.333496,4212.307617,4218.589844,0.000000,3.000000,,,,0.000000,0.000000,0.000000,0.000000,0.000000,0.000000,0.000000,0.000000,0.000000,0.000000,0.000000,0.000000,0.000000,0.000000,0.000000,0.000000,63.000000,0.000000,8200.000000,8101.000000,8189.000000,12234.000000,8855.000000,7619.000000,8233.000000,8625.000000,8514.000000,,,,,,,,,,,,,,,,,,,,,,,,,,,,,,,,,,,,,,,,,,,,,,,,,,,,,,,,,,,,,,,,,,,,,,,,,,,,,,,,,,,,,,,,,,,,,,,,,,,,,,,,,,,,,,,,,,,,
1597395156.256081,127.000000,0.000000,4213.717773,4212.692383,4215.512695,4211.922852,4209.615234,4212.051270,4209.615234,4215.256348,4215.384766,4217.692383,4265.769043,4955.512695,4214.743652,4217.436035,52.000000,3.000000,,,,0.000000,0.000000,0.000000,0.000000,0.000000,0.000000,0.000000,0.000000,0.000000,0.000000,0.000000,0.000000,0.000000,0.000000,0.000000,0.000000,,,,,,,,,,,,,,,,,,,,,,,,,,,,,,,,,,,,,,,,,,,,,,,,,,,,,,,,,,,,,,,,,,,,,,,,,,,,,,,,,,,,,,,,,,,,,,,,,,,,,,,,,,,,,,,,,,,,,,,,,,,,,,,
1597395156.263965,0.000000,0.000000,4210.128418,4209.358887,4211.922852,4210.128418,4211.538574,4209.871582,4210.000000,4212.692383,4215.641113,4217.692383,4269.358887,4956.410156,4215.641113,4218.717773,0.000000,3.000000,,,,0.000000,0.000000,0.000000,0.000000,0.000000,0.000000,0.000000,0.000000,0.000000,0.000000,0.000000,0.000000,0.000000,0.000000,0.000000,0.000000,0.000000,0.000000,8204.000000,8097.000000,8197.000000,12236.000000,8861.000000,7625.000000,8237.000000,8630.000000,8511.000000,,,,,,,,,,,,,,,,,,,,,,,,,,,,,,,,,,,,,,,,,,,,,,,,,,,,,,,,,,,,,,,,,,,,,,,,,,,,,,,,,,,,,,,,,,,,,,,,,,,,,,,,,,,,,,,,,,,,
1597395156.271849,1.000000,0.000000,4211.025879,4212.692383,4211.538574,4213.974121,4211.153809,4209.743652,4208.717773,4207.692383,4217.051270,4217.692383,4266.410156,4958.205078,4213.205078,4217.692383,0.000000,3.000000,,,,0.000000,0.000000,0.000000,0.000000,0.000000,0.000000,0.000000,0.000000,0.000000,0.000000,0.000000,0.000000,0.000000,0.000000,0.000000,0.000000,,,,,,,,,,,,,,,,,,,,,,,,,,,,,,,,,,,,,,,,,,,,,,,,,,,,,,,,,,,,,,,,,,,,,,,,,,,,,,,,,,,,,,,,,,,,,,,,,,,,,,,,,,,,,,,,,,,,,,,,,,,,,,,
1597395156.279733,2.000000,0.000000,4212.948730,4214.230957,4214.871582,4216.025879,4208.974121,4209.230957,4208.333496,4209.487305,4215.000000,4217.692383,4264.358887,4960.384766,4212.820313,4218.333496,0.000000,3.000000,,,,0.000000,0.000000,0.000000,0.000000,0.000000,0.000000,0.000000,0.000000,0.000000,0.000000,0.000000,0.000000,0.000000,0.000000,0.000000,0.000000,1.000000,0.000000,8208.000000,8099.000000,8196.000000,12228.000000,8825.000000,7610.000000,8230.000000,8610.000000,8511.000000,,,,,,,,,,,,,,,,,,,,,,,,,,,,,,,,,,,,,,,,,,,,,,,,,,,,,,,,,,,,,,,,,,,,,,,,,,,,,,,,,,,,,,,,,,,,,,,,,,,,,,,,,,,,,,,,,,,,
1597395156.287617,3.000000,0.000000,4210.769043,4212.692383,4212.307617,4214.615234,4211.025879,4209.102539,4210.000000,4213.846191,4213.077148,4217.692383,4264.743652,4954.230957,4214.743652,4218.974121,0.000000,3.000000,,,,0.000000,0.000000,0.000000,0.000000,0.000000,0.000000,0.000000,0.000000,0.000000,0.000000,0.000000,0.000000,0.000000,0.000000,0.000000,0.000000,,,,,,,,,,,,,,,,,,,,,,,,,,,,,,,,,,,,,,,,,,,,,,,,,,,,,,,,,,,,,,,,,,,,,,,,,,,,,,,,,,,,,,,,,,,,,,,,,,,,,,,,,,,,,,,,,,,,,,,,,,,,,,,
1597395156.295601,4.000000,0.000000,4210.000000,4210.512695,4210.256348,4215.641113,4210.769043,4207.179688,4208.461426,4212.563965,4212.948730,4217.692383,4265.384766,4952.820313,4214.743652,4218.589844,0.000000,3.000000,,,,0.000000,0.000000,0.000000,0.000000,0.000000,0.000000,0.000000,0.000000,0.000000,0.000000,0.000000,0.000000,0.000000,0.000000,0.000000,0.000000,2.000000,0.000000,8203.000000,8098.000000,8191.000000,12234.000000,8839.000000,7621.000000,8230.000000,8628.000000,8511.000000,,,,,,,,,,,,,,,,,,,,,,,,,,,,,,,,,,,,,,,,,,,,,,,,,,,,,,,,,,,,,,,,,,,,,,,,,,,,,,,,,,,,,,,,,,,,,,,,,,,,,,,,,,,,,,,,,,,,
1597395156.303484,5.000000,0.000000,4212.436035,4211.666504,4210.384766,4216.538574,4209.230957,4210.641113,4208.461426,4212.307617,4213.717773,4217.692383,4265.641113,4951.538574,4214.487305,4218.077148,0.000000,3.000000,,,,0.000000,0.000000,0.000000,0.000000,0.000000,0.000000,0.000000,0.000000,0.000000,0.000000,0.000000,0.000000,0.000000,0.000000,0.000000,0.000000,,,,,,,,,,,,,,,,,,,,,,,,,,,,,,,,,,,,,,,,,,,,,,,,,,,,,,,,,,,,,,,,,,,,,,,,,,,,,,,,,,,,,,,,,,,,,,,,,,,,,,,,,,,,,,,,,,,,,,,,,,,,,,,
1597395156.311368,6.000000,0.000000,4210.384766,4209.358887,4211.922852,4212.820313,4208.717773,4211.025879,4208.846191,4213.846191,4213.846191,4217.692383,4267.563965,4954.743652,4215.128418,4219.743652,0.000000,3.000000,,,,0.000000,0.000000,0.000000,0.000000,0.000000,0.000000,0.000000,0.000000,0.000000,0.000000,0.000000,0.000000,0.000000,0.000000,0.000000,0.000000,3.000000,0.000000,8198.000000,8111.000000,8194.000000,12238.000000,8829.000000,7614.000000,8233.000000,8639.000000,8512.000000,,,,,,,,,,,,,,,,,,,,,,,,,,,,,,,,,,,,,,,,,,,,,,,,,,,,,,,,,,,,,,,,,,,,,,,,,,,,,,,,,,,,,,,,,,,,,,,,,,,,,,,,,,,,,,,,,,,,
1597395156.319251,7.000000,0.000000,4211.153809,4210.256348,4208.717773,4209.487305,4210.384766,4207.436035,4209.871582,4211.410156,4213.461426,4217.692383,4265.512695,4955.769043,4214.487305,4219.871582,0.000000,3.000000,,,,0.000000,0.000000,0.000000,0.000000,0.000000,0.000000,0.000000,0.000000,0.000000,0.000000,0.000000,0.000000,0.000000,0.000000,0.000000,0.000000,,,,,,,,,,,,,,,,,,,,,,,,,,,,,,,,,,,,,,,,,,,,,,,,,,,,,,,,,,0.022382,0.056742,0.039271,0.030333,0.039005,0.039653,0.034126,0.021464,0.021769,0.028283,0.031764,0.017776,0.014584,0.016677,0.019162,0.006559,0.015716,0.022083,0.010170,0.013586,0.036048,0.037719,0.008529,0.020929,0.017601,0.024229,0.024879,0.029375,0.017233,0.020606,0.030864,0.011717,0.013014,0.008785,0.017529,0.039948,0.038429,0.013211,0.032725,0.052953,0.017824,0.035690,0.012274,0.029016,0.032271,0.001989,0.000837,0.000507,0.000239,0.000139,0.024059,0.053514,0.015984,0.044412,0.037734,0.049561,0.023707,0.017083,0.025680,0.023910,0.022897,0.013670,0.027147,0.012660,0.016140,0.026719,0.013988,0.015351,0.017899,0.015491
1597395156.327135,8.000000,0.000000,4212.820313,4212.051270,4209.487305,4212.692383,4211.282227,4206.025879,4212.692383,4210.641113,4213.589844,4217.692383,4266.282227,4956.153809,4211.794922,4219.358887,0.000000,3.000000,,,,0.000000,0.000000,0.000000,0.000000,0.000000,0.000000,0.000000,0.000000,0.000000,0.000000,0.000000,0.000000,0.000000,0.000000,0.000000,0.000000,4.000000,0.000000,8196.000000,8102.000000,8188.000000,12218.000000,8828.000000,7634.000000,8235.000000,8627.000000,8512.000000,,,,,,,,,,,,,,,,,,,,,,,,,,,,,,,,,,,,,,,,,,,,,,,,,,,,,,,,,,,,,,,,,,,,,,,,,,,,,,,,,,,,,,,,,,,,,,,,,,,,,,,,,,,,,,,,,,,,
1597395156.335018,9.000000,0.000000,4209.230957,4208.333496,4214.487305,4214.358887,4213.077148,4211.794922,4212.820313,4215.000000,4213.846191,4217.692383,4269.230957,4954.230957,4212.820313,4218.333496,0.000000,3.000000,,,,0.000000,0.000000,0.000000,0.000000,0.000000,0.000000,0.000000,0.000000,0.000000,0.000000,0.000000,0.000000,0.000000,0.000000,0.000000,0.000000,,,,,,,,,,,,,,,,,,,,,,,,,,,,,,,,,,,,,,,,,,,,,,,,,,,,,,,,,,,,,,,,,,,,,,,,,,,,,,,,,,,,,,,,,,,,,,,,,,,,,,,,,,,,,,,,,,,,,,,,,,,,,,,
1597395156.342902,10.000000,0.000000,4208.589844,4207.563965,4215.384766,4211.538574,4211.922852,4212.436035,4209.102539,4215.641113,4214.230957,4217.692383,4267.307617,4957.179688,4217.307617,4217.692383,0.000000,3.000000,,,,0.000000,0.000000,0.000000,0.000000,0.000000,0.000000,0.000000,0.000000,0.000000,0.000000,0.000000,0.000000,0.000000,0.000000,0.000000,0.000000,5.000000,0.000000,8204.000000,8107.000000,8199.000000,12232.000000,8828.000000,7600.000000,8235.000000,8629.000000,8514.000000,,,,,,,,,,,,,,,,,,,,,,,,,,,,,,,,,,,,,,,,,,,,,,,,,,,,,,,,,,,,,,,,,,,,,,,,,,,,,,,,,,,,,,,,,,,,,,,,,,,,,,,,,,,,,,,,,,,,
1597395156.350786,11.000000,0.000000,4212.692383,4211.794922,4209.487305,4210.769043,4210.641113,4209.743652,4208.589844,4214.487305,4216.410156,4217.692383,4264.487305,4956.922852,4216.538574,4216.410156,0.000000,3.000000,,,,0.000000,0.000000,0.000000,0.000000,0.000000,0.000000,0.000000,0.000000,0.000000,0.000000,0.000000,0.000000,0.000000,0.000000,0.000000,0.000000,,,,,,,,,,,,,,,,,,,,,,,,,,,,,,,,,,,,,,,,,,,,,,,,,,,,,,,,,,,,,,,,,,,,,,,,,,,,,,,,,,,,,,,,,,,,,,,,,,,,,,,,,,,,,,,,,,,,,,,,,,,,,,,
1597395156.358570,12.000000,0.000000,4211.794922,4212.692383,4210.000000,4213.589844,4210.897461,4208.846191,4208.589844,4215.000000,4216.922852,4217.692383,4268.974121,4954.615234,4214.743652,4219.615234,0.000000,3.000000,,,,0.000000,0.000000,0.000000,0.000000,0.000000,0.000000,0.000000,0.000000,0.000000,0.000000,0.000000,0.000000,0.000000,0.000000,0.000000,0.000000,6.000000,0.000000,8195.000000,8100.000000,8192.000000,12241.000000,8852.000000,7613.000000,8233.000000,8624.000000,8513.000000,,,,,,,,,,,,,,,,,,,,,,,,,,,,,,,,,,,,,,,,,,,,,,,,,,,,,,,,,,,,,,,,,,,,,,,,,,,,,,,,,,,,,,,,,,,,,,,,,,,,,,,,,,,,,,,,,,,,
1597395156.366454,13.000000,0.000000,4207.179688,4211.410156,4214.615234,4212.563965,4212.051270,4209.743652,4207.820313,4215.256348,4214.615234,4217.692383,4269.230957,4957.179688,4215.128418,4220.897461,0.000000,3.000000,,,,0.000000,0.000000,0.000000,0.000000,0.000000,0.000000,0.000000,0.000000,0.000000,0.000000,0.000000,0.000000,0.000000,0.000000,0.000000,0.000000,,,,,,,,,,,,,,,,,,,,,,,,,,,,,,,,,,,,,,,,,,,,,,,,,,,,,,,,,,,,,,,,,,,,,,,,,,,,,,,,,,,,,,,,,,,,,,,,,,,,,,,,,,,,,,,,,,,,,,,,,,,,,,,
1597395156.374338,14.000000,0.000000,4211.538574,4214.743652,4212.307617,4210.256348,4211.410156,4211.538574,4210.384766,4212.948730,4214.358887,4217.692383,4261.794922,4957.436035,4214.615234,4218.205078,0.000000,3.000000,,,,0.000000,0.000000,0.000000,0.000000,0.000000,0.000000,0.000000,0.000000,0.000000,0.000000,0.000000,0.000000,0.000000,0.000000,0.000000,0.000000,7.000000,0.000000,8204.000000,8099.000000,8196.000000,12236.000000,8834.000000,7606.000000,8235.000000,8627.000000,8511.000000,,,,,,,,,,,,,,,,,,,,,,,,,,,,,,,,,,,,,,,,,,,,,,,,,,,,,,,,,,,,,,,,,,,,,,,,,,,,,,,,,,,,,,,,,,,,,,,,,,,,,,,,,,,,,,,,,,,,
1597395156.382222,15.000000,0.000000,4215.384766,4213.974121,4210.769043,4213.974121,4209.487305,4210.897461,4210.000000,4213.717773,4216.922852,4217.692383,4262.563965,4957.307617,4212.051270,4217.692383,0.000000,3.000000,,,,0.000000,0.000000,0.000000,0.000000,0.000000,0.000000,0.000000,0.000000,0.000000,0.000000,0.000000,0.000000,0.000000,0.000000,0.000000,0.000000,,,,,,,,,,,,,,,,,,,,,,,,,,,,,,,,,,,,,,,,,,,,,,,,,,,,,,,,,,,,,,,,,,,,,,,,,,,,,,,,,,,,,,,,,,,,,,,,,,,,,,,,,,,,,,,,,,,,,,,,,,,,,,,
1597395156.390106,16.000000,0.000000,4214.358887,4213.974121,4214.871582,4216.538574,4208.589844,4209.487305,4207.563965,4215.128418,4216.666504,4217.692383,4268.846191,4956.410156,4212.051270,4218.717773,0.000000,3.000000,,,,0.000000,0.000000,0.000000,0.000000,0.000000,0.000000,0.000000,0.000000,0.000000,0.000000,0.000000,0.000000,0.000000,0.000000,0.000000,0.000000,8.000000,0.000000,8202.000000,8104.000000,8198.000000,12230.000000,8841.000000,7608.000000,8232.000000,8634.000000,8511.000000,,,,,,,,,,,,,,,,,,,,,,,,,,,,,,,,,,,,,,,,,,,,,,,,,,,,,,,,,,,,,,,,,,,,,,,,,,,,,,,,,,,,,,,,,,,,,,,,,,,,,,,,,,,,,,,,,,,,
1597395156.397990,17.000000,0.000000,4212.563965,4215.256348,4215.256348,4213.461426,4208.974121,4208.589844,4210.897461,4214.102539,4214.487305,4217.692383,4268.205078,4956.410156,4214.230957,4216.794922,0.000000,3.000000,,,,0.000000,0.000000,0.000000,0.000000,0.000000,0.000000,0.000000,0.000000,0.000000,0.000000,0.000000,0.000000,0.000000,0.000000,0.000000,0.000000,,,,,,,,,,,,,,,,,,,,,,,,,,,,,,,,,,,,,,,,,,,,,,,,,,,,,,,,,,,,,,,,,,,,,,,,,,,,,,,,,,,,,,,,,,,,,,,,,,,,,,,,,,,,,,,,,,,,,,,,,,,,,,,
1597395156.405874,18.000000,0.000000,4212.051270,4213.846191,4210.641113,4212.692383,4211.794922,4211.410156,4212.692383,4216.025879,4213.717773,4217.692383,4264.871582,4954.743652,4214.487305,4216.794922,0.000000,3.000000,,,,0.000000,0.000000,0.000000,0.000000,0.000000,0.000000,0.000000,0.000000,0.000000,0.000000,0.000000,0.000000,0.000000,0.000000,0.000000,0.000000,9.000000,0.000000,8199.000000,8106.000000,8196.000000,12231.000000,8852.000000,7627.000000,8228.000000,8627.000000,8513.000000,,,,,,,,,,,,,,,,,,,,,,,,,,,,,,,,,,,,,,,,,,,,,,,,,,,,,,,,,,,,,,,,,,,,,,,,,,,,,,,,,,,,,,,,,,,,,,,,,,,,,,,,,,,,,,,,,,,,
1597395156.413758,19.000000,0.000000,4212.563965,4211.410156,4210.000000,4213.461426,4211.410156,4210.128418,4208.077148,4215.512695,4214.230957,4217.692383,4267.563965,4958.974121,4212.307617,4220.256348,0.000000,3.000000,,,,0.000000,0.000000,0.000000,0.000000,0.000000,0.000000,0.000000,0.000000,0.000000,0.000000,0.000000,0.000000,0.000000,0.000000,0.000000,0.000000,,,,,,,,,,,,,,,,,,,,,,,,,,,,,,,,,,,,,,,,,,,,,,,,,,,,,,,,,,,,,,,,,,,,,,,,,,,,,,,,,,,,,,,,,,,,,,,,,,,,,,,,,,,,,,,,,,,,,,,,,,,,,,,
1597395156.421642,20.000000,0.000000,4213.461426,4215.384766,4210.128418,4212.563965,4209.615234,4210.641113,4207.436035,4210.128418,4216.666504,4217.692383,4267.179688,4958.205078,4210.256348,4218.974121,0.000000,3.000000,,,,0.000000,0.000000,0.000000,0.000000,0.000000,0.000000,0.000000,0.000000,0.000000,0.000000,0.000000,0.000000,0.000000,0.000000,0.000000,0.000000,10.000000,0.000000,8201.000000,8099.000000,8194.000000,12233.000000,8824.000000,7616.000000,8233.000000,8627.000000,8510.000000,,,,,,,,,,,,,,,,,,,,,,,,,,,,,,,,,,,,,,,,,,,,,,,,,,,,,,,,,,,,,,,,,,,,,,,,,,,,,,,,,,,,,,,,,,,,,,,,,,,,,,,,,,,,,,,,,,,,
1597395156.429426,21.000000,0.000000,4211.282227,4213.333496,4212.820313,4213.077148,4209.230957,4210.897461,4208.846191,4209.743652,4216.025879,4217.692383,4265.384766,4956.794922,4212.692383,4217.692383,0.000000,3.000000,,,,0.000000,0.000000,0.000000,0.000000,0.000000,0.000000,0.000000,0.000000,0.000000,0.000000,0.000000,0.000000,0.000000,0.000000,0.000000,0.000000,,,,,,,,,,,,,,,,,,,,,,,,,,,,,,,,,,,,,,,,,,,,,,,,,,,,,,,,,,,,,,,,,,,,,,,,,,,,,,,,,,,,,,,,,,,,,,,,,,,,,,,,,,,,,,,,,,,,,,,,,,,,,,,
1597395156.437310,22.000000,0.000000,4210.512695,4211.410156,4213.077148,4213.333496,4212.563965,4210.128418,4208.589844,4216.025879,4214.230957,4217.692383,4262.051270,4955.128418,4214.358887,4217.307617,0.000000,3.000000,,,,0.000000,0.000000,0.000000,0.000000,0.000000,0.000000,0.000000,0.000000,0.000000,0.000000,0.000000,0.000000,0.000000,0.000000,0.000000,0.000000,11.000000,0.000000,8204.000000,8102.000000,8201.000000,12231.000000,8836.000000,7617.000000,8233.000000,8623.000000,8513.000000,,,,,,,,,,,,,,,,,,,,,,,,,,,,,,,,,,,,,,,,,,,,,,,,,,,,,,,,,,,,,,,,,,,,,,,,,,,,,,,,,,,,,,,,,,,,,,,,,,,,,,,,,,,,,,,,,,,,
1597395156.445193,23.000000,0.000000,4211.538574,4212.692383,4211.922852,4212.307617,4210.769043,4209.230957,4208.077148,4215.512695,4214.743652,4217.692383,4264.487305,4957.563965,4213.589844,4216.410156,0.000000,3.000000,,,,0.000000,0.000000,0.000000,0.000000,0.000000,0.000000,0.000000,0.000000,0.000000,0.000000,0.000000,0.000000,0.000000,0.000000,0.000000,0.000000,,,,,,,,,,,,,,,,,,,,,,,,,,,,,,,,,,,,,,,,,,,,,,,,,,,,,,,,,,0.019694,0.067047,0.044188,0.030735,0.039166,0.041427,0.036610,0.019824,0.021875,0.029436,0.027262,0.020554,0.012882,0.014867,0.018476,0.007811,0.013848,0.022446,0.010608,0.012182,0.028098,0.035541,0.009626,0.019720,0.019137,0.026122,0.025156,0.030368,0.017589,0.021767,0.025602,0.010942,0.012622,0.009398,0.016439,0.040441,0.036797,0.012253,0.029113,0.048978,0.017711,0.031703,0.012686,0.031398,0.037048,0.001446,0.000527,0.000298,0.000130,0.000072,0.023896,0.071111,0.018487,0.046257,0.037757,0.041232,0.019834,0.015431,0.025623,0.026745,0.020181,0.014030,0.025945,0.012757,0.016137,0.026048,0.015097,0.012739,0.019929,0.016863
1597395156.453077,24.000000,0.000000,4212.436035,4213.077148,4211.922852,4211.282227,4210.641113,4212.692383,4209.871582,4211.282227,4214.230957,4217.692383,4267.436035,4956.153809,4213.461426,4215.512695,0.000000,3.000000,,,,0.000000,0.000000,0.000000,0.000000,0.000000,0.000000,0.000000,0.000000,0.000000,0.000000,0.000000,0.000000,0.000000,0.000000,0.000000,0.000000,12.000000,0.000000,8206.000000,8102.000000,8199.000000,12236.000000,8848.000000,7611.000000,8241.000000,8628.000000,8510.000000,,,,,,,,,,,,,,,,,,,,,,,,,,,,,,,,,,,,,,,,,,,,,,,,,,,,,,,,,,,,,,,,,,,,,,,,,,,,,,,,,,,,,,,,,,,,,,,,,,,,,,,,,,,,,,,,,,,,
1597395156.460961,25.000000,0.000000,4210.769043,4211.922852,4213.333496,4210.897461,4212.948730,4212.436035,4210.256348,4212.948730,4214.230957,4217.692383,4265.000000,4957.436035,4214.358887,4216.153809,0.000000,3.000000,,,,0.000000,0.000000,0.000000,0.000000,0.000000,0.000000,0.000000,0.000000,0.000000,0.000000,0.000000,0.000000,0.000000,0.000000,0.000000,0.000000,,,,,,,,,,,,,,,,,,,,,,,,,,,,,,,,,,,,,,,,,,,,,,,,,,,,,,,,,,,,,,,,,,,,,,,,,,,,,,,,,,,,,,,,,,,,,,,,,,,,,,,,,,,,,,,,,,,,,,,,,,,,,,,
1597395156.468845,26.000000,0.000000,4210.256348,4213.717773,4209.871582,4210.641113,4212.692383,4212.179688,4210.384766,4213.205078,4216.282227,4217.692383,4262.820313,4956.666504,4213.077148,4215.897461,0.000000,3.000000,,,,0.000000,0.000000,0.000000,0.000000,0.000000,0.000000,0.000000,0.000000,0.000000,0.000000,0.000000,0.000000,0.000000,0.000000,0.000000,0.000000,13.000000,0.000000,8204.000000,8100.000000,8202.000000,12231.000000,8857.000000,7621.000000,8233.000000,8625.000000,8512.000000,,,,,,,,,,,,,,,,,,,,,,,,,,,,,,,,,,,,,,,,,,,,,,,,,,,,,,,,,,,,,,,,,,,,,,,,,,,,,,,,,,,,,,,,,,,,,,,,,,,,,,,,,,,,,,,,,,,,
1597395156.476728,27.000000,0.000000,4211.410156,4210.897461,4211.666504,4212.051270,4210.000000,4209.743652,4208.717773,4211.025879,4216.794922,4217.692383,4267.307617,4956.666504,4211.922852,4218.077148,0.000000,3.000000,,,,0.000000,0.000000,0.000000,0.000000,0.000000,0.000000,0.000000,0.000000,0.000000,0.000000,0.000000,0.000000,0.000000,0.000000,0.000000,0.000000,,,,,,,,,,,,,,,,,,,,,,,,,,,,,,,,,,,,,,,,,,,,,,,,,,,,,,,,,,,,,,,,,,,,,,,,,,,,,,,,,,,,,,,,,,,,,,,,,,,,,,,,,,,,,,,,,,,,,,,,,,,,,,,
1597395156.484612,28.000000,0.000000,4213.589844,4209.743652,4213.974121,4212.563965,4210.384766,4211.794922,4207.948730,4213.333496,4216.410156,4217.692383,4267.563965,4953.974121,4211.666504,4215.897461,0.000000,3.000000,,,,0.000000,0.000000,0.000000,0.000000,0.000000,0.000000,0.000000,0.000000,0.000000,0.000000,0.000000,0.000000,0.000000,0.000000,0.000000,0.000000,14.000000,0.000000,8207.000000,8100.000000,8200.000000,12228.000000,8848.000000,7617.000000,8228.000000,8625.000000,8511.000000,,,,,,,,,,,,,,,,,,,,,,,,,,,,,,,,,,,,,,,,,,,,,,,,,,,,,,,,,,,,,,,,,,,,,,,,,,,,,,,,,,,,,,,,,,,,,,,,,,,,,,,,,,,,,,,,,,,,
1597395156.492496,29.000000,0.000000,4212.051270,4214.102539,4212.820313,4211.025879,4209.871582,4214.487305,4207.948730,4215.384766,4216.922852,4217.692383,4266.153809,4954.230957,4212.948730,4213.846191,0.000000,3.000000,,,,0.000000,0.000000,0.000000,0.000000,0.000000,0.000000,0.000000,0.000000,0.000000,0.000000,0.000000,0.000000,0.000000,0.000000,0.000000,0.000000,,,,,,,,,,,,,,,,,,,,,,,,,,,,,,,,,,,,,,,,,,,,,,,,,,,,,,,,,,,,,,,,,,,,,,,,,,,,,,,,,,,,,,,,,,,,,,,,,,,,,,,,,,,,,,,,,,,,,,,,,,,,,,,
1597395156.500280,30.000000,0.000000,4210.128418,4213.974121,4213.717773,4211.282227,4209.102539,4212.436035,4208.846191,4214.615234,4213.333496,4217.692383,4269.230957,4956.153809,4213.333496,4217.563965,0.000000,3.000000,,,,0.000000,0.000000,0.000000,0.000000,0.000000,0.000000,0.000000,0.000000,0.000000,0.000000,0.000000,0.000000,0.000000,0.000000,0.000000,0.000000,15.000000,0.000000,8201.000000,8100.000000,8195.000000,12229.000000,8851.000000,7612.000000,8229.000000,8649.000000,8513.000000,,,,,,,,,,,,,,,,,,,,,,,,,,,,,,,,,,,,,,,,,,,,,,,,,,,,,,,,,,,,,,,,,,,,,,,,,,,,,,,,,,,,,,,,,,,,,,,,,,,,,,,,,,,,,,,,,,,,
1597395156.508164,31.000000,0.000000,4212.307617,4211.794922,4214.871582,4214.487305,4211.922852,4208.974121,4208.589844,4214.743652,4210.897461,4217.692383,4268.333496,4953.333496,4213.205078,4220.512695,0.000000,3.000000,,,,0.000000,0.000000,0.000000,0.000000,0.000000,0.000000,0.000000,0.000000,0.000000,0.000000,0.000000,0.000000,0.000000,0.000000,0.000000,0.000000,,,,,,,,,,,,,,,,,,,,,,,,,,,,,,,,,,,,,,,,,,,,,,,,,,,,,,,,,,,,,,,,,,,,,,,,,,,,,,,,,,,,,,,,,,,,,,,,,,,,,,,,,,,,,,,,,,,,,,,,,,,,,,,
1597395156.516048,32.000000,0.000000,4211.538574,4213.461426,4211.922852,4215.897461,4213.333496,4209.102539,4208.717773,4213.974121,4215.769043,4217.692383,4265.128418,4953.333496,4212.948730,4216.153809,0.000000,3.000000,,,,0.000000,0.000000,0.000000,0.000000,0.000000,0.000000,0.000000,0.000000,0.000000,0.000000,0.000000,0.000000,0.000000,0.000000,0.000000,0.000000,16.000000,0.000000,8204.000000,8094.000000,8199.000000,12233.000000,8844.000000,7615.000000,8232.000000,8627.000000,8512.000000,,,,,,,,,,,,,,,,,,,,,,,,,,,,,,,,,,,,,,,,,,,,,,,,,,,,,,,,,,,,,,,,,,,,,,,,,,,,,,,,,,,,,,,,,,,,,,,,,,,,,,,,,,,,,,,,,,,,
1597395156.523932,33.000000,0.000000,4209.358887,4216.282227,4210.769043,4214.230957,4211.025879,4211.666504,4210.128418,4211.410156,4216.794922,4217.692383,4266.282227,4957.179688,4212.820313,4215.384766,0.000000,3.000000,,,,0.000000,0.000000,0.000000,0.000000,0.000000,0.000000,0.000000,0.000000,0.000000,0.000000,0.000000,0.000000,0.000000,0.000000,0.000000,0.000000,,,,,,,,,,,,,,,,,,,,,,,,,,,,,,,,,,,,,,,,,,,,,,,,,,,,,,,,,,,,,,,,,,,,,,,,,,,,,,,,,,,,,,,,,,,,,,,,,,,,,,,,,,,,,,,,,,,,,,,,,,,,,,,
1597395156.531816,34.000000,0.000000,4208.974121,4211.153809,4211.538574,4211.410156,4210.384766,4210.512695,4208.846191,4210.384766,4214.743652,4217.692383,4269.102539,4957.948730,4213.461426,4217.820313,0.000000,3.000000,,,,0.000000,0.000000,0.000000,0.000000,0.000000,0.000000,0.000000,0.000000,0.000000,0.000000,0.000000,0.000000,0.000000,0.000000,0.000000,0.000000,17.000000,0.000000,8205.000000,8103.000000,8198.000000,12234.000000,8816.000000,7604.000000,8234.000000,8626.000000,8511.000000,,,,,,,,,,,,,,,,,,,,,,,,,,,,,,,,,,,,,,,,,,,,,,,,,,,,,,,,,,,,,,,,,,,,,,,,,,,,,,,,,,,,,,,,,,,,,,,,,,,,,,,,,,,,,,,,,,,,
1597395156.539700,35.000000,0.000000,4212.307617,4210.641113,4207.820313,4214.487305,4212.051270,4210.641113,4208.077148,4211.794922,4216.794922,4217.692383,4269.487305,4953.077148,4211.922852,4218.077148,0.000000,3.000000,,,,0.000000,0.000000,0.000000,0.000000,0.000000,0.000000,0.000000,0.000000,0.000000,0.000000,0.000000,0.000000,0.000000,0.000000,0.000000,0.000000,,,,,,,,,,,,,,,,,,,,,,,,,,,,,,,,,,,,,,,,,,,,,,,,,,,,,,,,,,,,,,,,,,,,,,,,,,,,,,,,,,,,,,,,,,,,,,,,,,,,,,,,,,,,,,,,,,,,,,,,,,,,,,,
1597395156.547584,36.000000,0.000000,4213.333496,4213.974121,4208.717773,4216.538574,4213.333496,4211.025879,4210.512695,4212.307617,4217.820313,4217.692383,4268.205078,4955.000000,4210.128418,4218.717773,0.000000,3.000000,,,,0.000000,0.000000,0.000000,0.000000,0.000000,0.000000,0.000000,0.000000,0.000000,0.000000,0.000000,0.000000,0.000000,0.000000,0.000000,0.000000,18.000000,0.000000,8202.000000,8103.000000,8196.000000,12230.000000,8817.000000,7612.000000,8233.000000,8627.000000,8513.000000,,,,,,,,,,,,,,,,,,,,,,,,,,,,,,,,,,,,,,,,,,,,,,,,,,,,,,,,,,,,,,,,,,,,,,,,,,,,,,,,,,,,,,,,,,,,,,,,,,,,,,,,,,,,,,,,,,,,
1597395156.555468,37.000000,0.000000,4212.051270,4215.128418,4212.051270,4212.692383,4213.077148,4213.461426,4211.153809,4210.769043,4215.512695,4217.692383,4265.769043,4954.487305,4213.846191,4219.358887,0.000000,3.000000,,,,0.000000,0.000000,0.000000,0.000000,0.000000,0.000000,0.000000,0.000000,0.000000,0.000000,0.000000,0.000000,0.000000,0.000000,0.000000,0.000000,,,,,,,,,,,,,,,,,,,,,,,,,,,,,,,,,,,,,,,,,,,,,,,,,,,,,,,,,,,,,,,,,,,,,,,,,,,,,,,,,,,,,,,,,,,,,,,,,,,,,,,,,,,,,,,,,,,,,,,,,,,,,,,
1597395156.563352,38.000000,0.000000,4213.974121,4210.641113,4212.563965,4211.153809,4208.717773,4210.256348,4207.563965,4212.563965,4216.282227,4217.692383,4268.333496,4956.666504,4216.410156,4218.205078,0.000000,3.000000,,,,0.000000,0.000000,0.000000,0.000000,0.000000,0.000000,0.000000,0.000000,0.000000,0.000000,0.000000,0.000000,0.000000,0.000000,0.000000,0.000000,19.000000,0.000000,8205.000000,8097.000000,8195.000000,12244.000000,8889.000000,7622.000000,8236.000000,8628.000000,8511.000000,,,,,,,,,,,,,,,,,,,,,,,,,,,,,,,,,,,,,,,,,,,,,,,,,,,,,,,,,,,,,,,,,,,,,,,,,,,,,,,,,,,,,,,,,,,,,,,,,,,,,,,,,,,,,,,,,,,,
1597395156.571335,39.000000,0.000000,4215.512695,4212.307617,4211.410156,4212.820313,4209.230957,4210.384766,4208.205078,4215.512695,4218.461426,4217.692383,4267.051270,4955.256348,4214.487305,4215.769043,0.000000,3.000000,,,,0.000000,0.000000,0.000000,0.000000,0.000000,0.000000,0.000000,0.000000,0.000000,0.000000,0.000000,0.000000,0.000000,0.000000,0.000000,0.000000,,,,,,,,,,,,,,,,,,,,,,,,,,,,,,,,,,,,,,,,,,,,,,,,,,,,,,,,,,0.017331,0.075150,0.050075,0.032148,0.038055,0.043020,0.039840,0.019782,0.022301,0.029347,0.023360,0.022498,0.010983,0.013959,0.018224,0.009265,0.013881,0.020789,0.011633,0.012153,0.019965,0.030363,0.012744,0.018091,0.019837,0.027908,0.024631,0.028444,0.017559,0.023264,0.020523,0.011028,0.012979,0.009986,0.015995,0.044076,0.038408,0.010808,0.026044,0.045590,0.015518,0.026386,0.012640,0.032631,0.040465,0.000955,0.000316,0.000169,0.000068,0.000037,0.025109,0.087343,0.021190,0.045660,0.036266,0.030753,0.015594,0.015309,0.025095,0.029694,0.018232,0.017226,0.025779,0.013678,0.016230,0.024253,0.017875,0.011907,0.021903,0.018510
1597395156.579217,40.000000,0.000000,4211.922852,4213.589844,4212.820313,4212.307617,4214.743652,4210.897461,4209.743652,4214.358887,4215.384766,4217.692383,4266.538574,4955.769043,4212.820313,4217.436035,0.000000,3.000000,,,,0.000000,0.000000,0.000000,0.000000,0.000000,0.000000,0.000000,0.000000,0.000000,0.000000,0.000000,0.000000,0.000000,0.000000,0.000000,0.000000,20.000000,0.000000,8205.000000,8089.000000,8195.000000,12239.000000,8853.000000,7606.000000,8232.000000,8629.000000,8510.000000,,,,,,,,,,,,,,,,,,,,,,,,,,,,,,,,,,,,,,,,,,,,,,,,,,,,,,,,,,,,,,,,,,,,,,,,,,,,,,,,,,,,,,,,,,,,,,,,,,,,,,,,,,,,,,,,,,,,
1597395156.587099,41.000000,0.000000,4210.384766,4211.282227,4211.666504,4210.512695,4214.871582,4210.128418,4207.436035,4215.512695,4215.128418,4217.692383,4268.333496,4954.871582,4213.461426,4217.948730,0.000000,3.000000,,,,0.000000,0.000000,0.000000,0.000000,0.000000,0.000000,0.000000,0.000000,0.000000,0.000000,0.000000,0.000000,0.000000,0.000000,0.000000,0.000000,,,,,,,,,,,,,,,,,,,,,,,,,,,,,,,,,,,,,,,,,,,,,,,,,,,,,,,,,,,,,,,,,,,,,,,,,,,,,,,,,,,,,,,,,,,,,,,,,,,,,,,,,,,,,,,,,,,,,,,,,,,,,,,
1597395156.594982,42.000000,0.000000,4211.538574,4210.897461,4212.436035,4212.820313,4208.461426,4208.077148,4207.692383,4216.153809,4216.410156,4217.692383,4270.769043,4958.205078,4213.974121,4216.538574,0.000000,3.000000,,,,0.000000,0.000000,0.000000,0.000000,0.000000,0.000000,0.000000,0.000000,0.000000,0.000000,0.000000,0.000000,0.000000,0.000000,0.000000,0.000000,21.000000,0.000000,8202.000000,8102.000000,8198.000000,12236.000000,8855.000000,7626.000000,8237.000000,8629.000000,8512.000000,,,,,,,,,,,,,,,,,,,,,,,,,,,,,,,,,,,,,,,,,,,,,,,,,,,,,,,,,,,,,,,,,,,,,,,,,,,,,,,,,,,,,,,,,,,,,,,,,,,,,,,,,,,,,,,,,,,,
1597395156.602763,43.000000,0.000000,4211.922852,4215.128418,4212.179688,4212.179688,4211.666504,4211.410156,4211.666504,4211.922852,4213.333496,4217.692383,4268.717773,4956.153809,4212.307617,4216.922852,0.000000,3.000000,,,,0.000000,0.000000,0.000000,0.000000,0.000000,0.000000,0.000000,0.000000,0.000000,0.000000,0.000000,0.000000,0.000000,0.000000,0.000000,0.000000,,,,,,,,,,,,,,,,,,,,,,,,,,,,,,,,,,,,,,,,,,,,,,,,,,,,,,,,,,,,,,,,,,,,,,,,,,,,,,,,,,,,,,,,,,,,,,,,,,,,,,,,,,,,,,,,,,,,,,,,,,,,,,,
1597395156.610547,44.000000,0.000000,4211.922852,4214.743652,4210.897461,4209.615234,4214.615234,4211.282227,4211.410156,4210.128418,4211.282227,4217.692383,4267.563965,4954.102539,4209.615234,4221.794922,0.000000,3.000000,,,,0.000000,0.000000,0.000000,0.000000,0.000000,0.000000,0.000000,0.000000,0.000000,0.000000,0.000000,0.000000,0.000000,0.000000,0.000000,0.000000,22.000000,0.000000,8208.000000,8100.000000,8201.000000,12242.000000,8829.000000,7606.000000,8232.000000,8629.000000,8508.000000,,,,,,,,,,,,,,,,,,,,,,,,,,,,,,,,,,,,,,,,,,,,,,,,,,,,,,,,,,,,,,,,,,,,,,,,,,,,,,,,,,,,,,,,,,,,,,,,,,,,,,,,,,,,,,,,,,,,
1597395156.618430,45.000000,0.000000,4210.256348,4213.333496,4208.974121,4212.179688,4210.256348,4211.025879,4209.487305,4214.487305,4213.589844,4217.692383,4267.563965,4953.077148,4211.666504,4220.897461,0.000000,3.000000,,,,0.000000,0.000000,0.000000,0.000000,0.000000,0.000000,0.000000,0.000000,0.000000,0.000000,0.000000,0.000000,0.000000,0.000000,0.000000,0.000000,,,,,,,,,,,,,,,,,,,,,,,,,,,,,,,,,,,,,,,,,,,,,,,,,,,,,,,,,,,,,,,,,,,,,,,,,,,,,,,,,,,,,,,,,,,,,,,,,,,,,,,,,,,,,,,,,,,,,,,,,,,,,,,
1597395156.626313,46.000000,0.000000,4207.436035,4213.461426,4210.128418,4216.538574,4209.230957,4212.307617,4208.717773,4213.717773,4214.230957,4217.692383,4267.436035,4956.922852,4216.025879,4217.563965,0.000000,3.000000,,,,0.000000,0.000000,0.000000,0.000000,0.000000,0.000000,0.000000,0.000000,0.000000,0.000000,0.000000,0.000000,0.000000,0.000000,0.000000,0.000000,23.000000,0.000000,8200.000000,8106.000000,8195.000000,12224.000000,8826.000000,7625.000000,8237.000000,8629.000000,8510.000000,,,,,,,,,,,,,,,,,,,,,,,,,,,,,,,,,,,,,,,,,,,,,,,,,,,,,,,,,,,,,,,,,,,,,,,,,,,,,,,,,,,,,,,,,,,,,,,,,,,,,,,,,,,,,,,,,,,,
1597395156.634197,47.000000,0.000000,4208.717773,4213.974121,4211.922852,4216.538574,4213.205078,4211.922852,4209.487305,4209.615234,4212.948730,4217.692383,4267.563965,4957.563965,4213.077148,4217.692383,0.000000,3.000000,,,,0.000000,0.000000,0.000000,0.000000,0.000000,0.000000,0.000000,0.000000,0.000000,0.000000,0.000000,0.000000,0.000000,0.000000,0.000000,0.000000,,,,,,,,,,,,,,,,,,,,,,,,,,,,,,,,,,,,,,,,,,,,,,,,,,,,,,,,,,,,,,,,,,,,,,,,,,,,,,,,,,,,,,,,,,,,,,,,,,,,,,,,,,,,,,,,,,,,,,,,,,,,,,,
1597395156.642080,48.000000,0.000000,4212.563965,4215.000000,4212.820313,4214.487305,4211.666504,4208.846191,4208.846191,4210.512695,4214.487305,4217.692383,4268.717773,4955.769043,4211.282227,4218.717773,0.000000,3.000000,,,,0.000000,0.000000,0.000000,0.000000,0.000000,0.000000,0.000000,0.000000,0.000000,0.000000,0.000000,0.000000,0.000000,0.000000,0.000000,0.000000,24.000000,0.000000,8201.000000,8101.000000,8200.000000,12229.000000,8833.000000,7620.000000,8233.000000,8626.000000,8512.000000,,,,,,,,,,,,,,,,,,,,,,,,,,,,,,,,,,,,,,,,,,,,,,,,,,,,,,,,,,,,,,,,,,,,,,,,,,,,,,,,,,,,,,,,,,,,,,,,,,,,,,,,,,,,,,,,,,,,
1597395156.649963,49.000000,0.000000,4214.102539,4214.871582,4213.077148,4215.384766,4209.743652,4210.769043,4207.820313,4212.563965,4215.256348,4217.692383,4267.820313,4954.615234,4215.000000,4217.692383,0.000000,3.000000,,,,0.000000,0.000000,0.000000,0.000000,0.000000,0.000000,0.000000,0.000000,0.000000,0.000000,0.000000,0.000000,0.000000,0.000000,0.000000,0.000000,,,,,,,,,,,,,,,,,,,,,,,,,,,,,,,,,,,,,,,,,,,,,,,,,,,,,,,,,,,,,,,,,,,,,,,,,,,,,,,,,,,,,,,,,,,,,,,,,,,,,,,,,,,,,,,,,,,,,,,,,,,,,,,
1597395156.657846,50.000000,0.000000,4213.589844,4213.589844,4212.948730,4213.717773,4212.051270,4212.179688,4208.077148,4212.692383,4215.897461,4217.692383,4265.384766,4954.102539,4214.358887,4217.436035,0.000000,3.000000,,,,0.000000,0.000000,0.000000,0.000000,0.000000,0.000000,0.000000,0.000000,0.000000,0.000000,0.000000,0.000000,0.000000,0.000000,0.000000,0.000000,25.000000,0.000000,8212.000000,8102.000000,8201.000000,12229.000000,8851.000000,7608.000000,8236.000000,8633.000000,8512.000000,,,,,,,,,,,,,,,,,,,,,,,,,,,,,,,,,,,,,,,,,,,,,,,,,,,,,,,,,,,,,,,,,,,,,,,,,,,,,,,,,,,,,,,,,,,,,,,,,,,,,,,,,,,,,,,,,,,,
1597395156.665631,51.000000,0.000000,4210.512695,4211.922852,4211.794922,4211.025879,4212.307617,4209.615234,4209.487305,4212.820313,4217.692383,4217.692383,4268.077148,4954.871582,4211.794922,4217.563965,0.000000,3.000000,,,,0.000000,0.000000,0.000000,0.000000,0.000000,0.000000,0.000000,0.000000,0.000000,0.000000,0.000000,0.000000,0.000000,0.000000,0.000000,0.000000,,,,,,,,,,,,,,,,,,,,,,,,,,,,,,,,,,,,,,,,,,,,,,,,,,,,,,,,,,,,,,,,,,,,,,,,,,,,,,,,,,,,,,,,,,,,,,,,,,,,,,,,,,,,,,,,,,,,,,,,,,,,,,,
1597395156.673515,52.000000,0.000000,4210.512695,4213.717773,4210.769043,4213.717773,4210.897461,4210.641113,4210.128418,4215.000000,4217.179688,4217.692383,4268.717773,4955.384766,4213.461426,4218.717773,0.000000,3.000000,,,,0.000000,0.000000,0.000000,0.000000,0.000000,0.000000,0.000000,0.000000,0.000000,0.000000,0.000000,0.000000,0.000000,0.000000,0.000000,0.000000,26.000000,0.000000,8204.000000,8103.000000,8196.000000,12233.000000,8879.000000,7638.000000,8240.000000,8624.000000,8513.000000,,,,,,,,,,,,,,,,,,,,,,,,,,,,,,,,,,,,,,,,,,,,,,,,,,,,,,,,,,,,,,,,,,,,,,,,,,,,,,,,,,,,,,,,,,,,,,,,,,,,,,,,,,,,,,,,,,,,
1597395156.681399,53.000000,0.000000,4213.589844,4212.563965,4212.563965,4214.615234,4213.589844,4210.000000,4207.948730,4212.692383,4215.000000,4217.692383,4264.358887,4957.179688,4214.358887,4217.563965,0.000000,3.000000,,,,0.000000,0.000000,0.000000,0.000000,0.000000,0.000000,0.000000,0.000000,0.000000,0.000000,0.000000,0.000000,0.000000,0.000000,0.000000,0.000000,,,,,,,,,,,,,,,,,,,,,,,,,,,,,,,,,,,,,,,,,,,,,,,,,,,,,,,,,,,,,,,,,,,,,,,,,,,,,,,,,,,,,,,,,,,,,,,,,,,,,,,,,,,,,,,,,,,,,,,,,,,,,,,
1597395156.689283,54.000000,0.000000,4213.846191,4211.282227,4211.922852,4214.102539,4218.333496,4208.333496,4206.922852,4211.410156,4212.820313,4217.692383,4264.102539,4954.358887,4216.538574,4215.256348,0.000000,3.000000,,,,0.000000,0.000000,0.000000,0.000000,0.000000,0.000000,0.000000,0.000000,0.000000,0.000000,0.000000,0.000000,0.000000,0.000000,0.000000,0.000000,27.000000,0.000000,8209.000000,8102.000000,8196.000000,12226.000000,8868.000000,7633.000000,8232.000000,8627.000000,8513.000000,,,,,,,,,,,,,,,,,,,,,,,,,,,,,,,,,,,,,,,,,,,,,,,,,,,,,,,,,,,,,,,,,,,,,,,,,,,,,,,,,,,,,,,,,,,,,,,,,,,,,,,,,,,,,,,,,,,,
1597395156.697167,55.000000,0.000000,4210.769043,4210.769043,4210.000000,4213.846191,4215.512695,4207.692383,4208.589844,4213.589844,4214.487305,4217.692383,4269.487305,4953.333496,4216.794922,4215.897461,0.000000,3.000000,,,,0.000000,0.000000,0.000000,0.000000,0.000000,0.000000,0.000000,0.000000,0.000000,0.000000,0.000000,0.000000,0.000000,0.000000,0.000000,0.000000,,,,,,,,,,,,,,,,,,,,,,,,,,,,,,,,,,,,,,,,,,,,,,,,,,,,,,,,,,0.016696,0.077556,0.054645,0.033832,0.036123,0.045486,0.043606,0.020782,0.022861,0.028105,0.021251,0.023558,0.009228,0.013721,0.018751,0.010693,0.016218,0.017331,0.013326,0.013584,0.013672,0.023967,0.017404,0.016758,0.019728,0.029711,0.022958,0.024103,0.017100,0.024814,0.016922,0.011511,0.014635,0.010422,0.016564,0.050165,0.043104,0.009122,0.024671,0.043350,0.012386,0.021685,0.012000,0.032637,0.041624,0.000570,0.000186,0.000097,0.000036,0.000021,0.028075,0.097319,0.023980,0.043160,0.034391,0.021819,0.012863,0.017503,0.023596,0.032017,0.017575,0.022873,0.026473,0.015213,0.016242,0.021840,0.021267,0.012376,0.022836,0.020066
1597395156.705051,56.000000,0.000000,4211.410156,4211.538574,4211.666504,4214.358887,4210.897461,4209.871582,4209.871582,4211.538574,4217.051270,4217.692383,4267.820313,4952.820313,4211.922852,4216.794922,0.000000,3.000000,,,,0.000000,0.000000,0.000000,0.000000,0.000000,0.000000,0.000000,0.000000,0.000000,0.000000,0.000000,0.000000,0.000000,0.000000,0.000000,0.000000,28.000000,0.000000,8204.000000,8102.000000,8194.000000,12236.000000,8853.000000,7616.000000,8231.000000,8629.000000,8511.000000,,,,,,,,,,,,,,,,,,,,,,,,,,,,,,,,,,,,,,,,,,,,,,,,,,,,,,,,,,,,,,,,,,,,,,,,,,,,,,,,,,,,,,,,,,,,,,,,,,,,,,,,,,,,,,,,,,,,
1597395156.712935,57.000000,0.000000,4211.538574,4210.384766,4215.128418,4216.025879,4209.615234,4210.128418,4207.948730,4208.333496,4216.153809,4217.692383,4266.025879,4956.666504,4211.025879,4218.589844,0.000000,3.000000,,,,0.000000,0.000000,0.000000,0.000000,0.000000,0.000000,0.000000,0.000000,0.000000,0.000000,0.000000,0.000000,0.000000,0.000000,0.000000,0.000000,,,,,,,,,,,,,,,,,,,,,,,,,,,,,,,,,,,,,,,,,,,,,,,,,,,,,,,,,,,,,,,,,,,,,,,,,,,,,,,,,,,,,,,,,,,,,,,,,,,,,,,,,,,,,,,,,,,,,,,,,,,,,,,
1597395156.720819,58.000000,0.000000,4210.256348,4212.436035,4212.692383,4214.487305,4210.641113,4213.077148,4208.974121,4211.282227,4215.128418,4217.692383,4263.077148,4953.974121,4215.128418,4219.487305,0.000000,3.000000,,,,0.000000,0.000000,0.000000,0.000000,0.000000,0.000000,0.000000,0.000000,0.000000,0.000000,0.000000,0.000000,0.000000,0.000000,0.000000,0.000000,29.000000,0.000000,8202.000000,8098.000000,8199.000000,12235.000000,8856.000000,7615.000000,8233.000000,8627.000000,8511.000000,,,,,,,,,,,,,,,,,,,,,,,,,,,,,,,,,,,,,,,,,,,,,,,,,,,,,,,,,,,,,,,,,,,,,,,,,,,,,,,,,,,,,,,,,,,,,,,,,,,,,,,,,,,,,,,,,,,,
1597395156.728703,59.000000,0.000000,4211.922852,4212.948730,4211.922852,4212.436035,4209.743652,4211.153809,4209.615234,4213.589844,4215.000000,4217.692383,4261.538574,4952.051270,4214.615234,4217.436035,0.000000,3.000000,,,,0.000000,0.000000,0.000000,0.000000,0.000000,0.000000,0.000000,0.000000,0.000000,0.000000,0.000000,0.000000,0.000000,0.000000,0.000000,0.000000,,,,,,,,,,,,,,,,,,,,,,,,,,,,,,,,,,,,,,,,,,,,,,,,,,,,,,,,,,,,,,,,,,,,,,,,,,,,,,,,,,,,,,,,,,,,,,,,,,,,,,,,,,,,,,,,,,,,,,,,,,,,,,,
1597395156.736687,60.000000,0.000000,4214.871582,4211.922852,4211.666504,4214.102539,4211.538574,4209.871582,4206.282227,4210.512695,4214.230957,4217.692383,4265.000000,4954.743652,4212.692383,4215.769043,0.000000,3.000000,,,,0.000000,0.000000,0.000000,0.000000,0.000000,0.000000,0.000000,0.000000,0.000000,0.000000,0.000000,0.000000,0.000000,0.000000,0.000000,0.000000,30.000000,0.000000,8206.000000,8097.000000,8196.000000,12221.000000,8822.000000,7620.000000,8230.000000,8627.000000,8509.000000,,,,,,,,,,,,,,,,,,,,,,,,,,,,,,,,,,,,,,,,,,,,,,,,,,,,,,,,,,,,,,,,,,,,,,,,,,,,,,,,,,,,,,,,,,,,,,,,,,,,,,,,,,,,,,,,,,,,
1597395156.744571,61.000000,0.000000,4212.307617,4208.846191,4215.512695,4214.358887,4211.282227,4210.256348,4204.358887,4211.410156,4214.230957,4217.692383,4270.256348,4962.692383,4215.000000,4219.230957,0.000000,3.000000,,,,0.000000,0.000000,0.000000,0.000000,0.000000,0.000000,0.000000,0.000000,0.000000,0.000000,0.000000,0.000000,0.000000,0.000000,0.000000,0.000000,,,,,,,,,,,,,,,,,,,,,,,,,,,,,,,,,,,,,,,,,,,,,,,,,,,,,,,,,,,,,,,,,,,,,,,,,,,,,,,,,,,,,,,,,,,,,,,,,,,,,,,,,,,,,,,,,,,,,,,,,,,,,,,
1597395156.752455,62.000000,0.000000,4210.897461,4211.410156,4215.256348,4211.666504,4212.307617,4211.794922,4207.051270,4216.922852,4215.256348,4217.692383,4268.205078,4959.358887,4214.743652,4220.256348,0.000000,3.000000,,,,0.000000,0.000000,0.000000,0.000000,0.000000,0.000000,0.000000,0.000000,0.000000,0.000000,0.000000,0.000000,0.000000,0.000000,0.000000,0.000000,31.000000,0.000000,8204.000000,8098.000000,8198.000000,12230.000000,8815.000000,7609.000000,8232.000000,8628.000000,8513.000000,,,,,,,,,,,,,,,,,,,,,,,,,,,,,,,,,,,,,,,,,,,,,,,,,,,,,,,,,,,,,,,,,,,,,,,,,,,,,,,,,,,,,,,,,,,,,,,,,,,,,,,,,,,,,,,,,,,,
1597395156.760339,63.000000,0.000000,4211.794922,4212.692383,4211.282227,4214.871582,4211.922852,4211.666504,4208.461426,4216.666504,4216.025879,4217.692383,4266.922852,4952.948730,4213.333496,4219.230957,0.000000,3.000000,,,,0.000000,0.000000,0.000000,0.000000,0.000000,0.000000,0.000000,0.000000,0.000000,0.000000,0.000000,0.000000,0.000000,0.000000,0.000000,0.000000,,,,,,,,,,,,,,,,,,,,,,,,,,,,,,,,,,,,,,,,,,,,,,,,,,,,,,,,,,,,,,,,,,,,,,,,,,,,,,,,,,,,,,,,,,,,,,,,,,,,,,,,,,,,,,,,,,,,,,,,,,,,,,,
1597395156.768223,64.000000,0.000000,4210.384766,4209.871582,4210.641113,4215.512695,4208.461426,4211.922852,4210.128418,4211.282227,4215.769043,4217.692383,4268.077148,4952.563965,4213.461426,4217.948730,0.000000,3.000000,,,,0.000000,0.000000,0.000000,0.000000,0.000000,0.000000,0.000000,0.000000,0.000000,0.000000,0.000000,0.000000,0.000000,0.000000,0.000000,0.000000,32.000000,0.000000,8201.000000,8101.000000,8190.000000,12239.000000,8852.000000,7614.000000,8231.000000,8633.000000,8511.000000,,,,,,,,,,,,,,,,,,,,,,,,,,,,,,,,,,,,,,,,,,,,,,,,,,,,,,,,,,,,,,,,,,,,,,,,,,,,,,,,,,,,,,,,,,,,,,,,,,,,,,,,,,,,,,,,,,,,
