title:demo marker, start timestamp:1598855931.575701, stop timestamp:1598855962.682047, headset type:EPOCPLUS, headset serial:3B9ADC97, headset firmware:625, subject name:deltaphase, channels:165, sampling rate:eeg_128;mot_64;pm_0.1;pow_8, samples:3951      , version:2.0
Timestamp,EEG.Counter,EEG.Interpolated,EEG.AF3,EEG.F7,EEG.F3,EEG.FC5,EEG.T7,EEG.P7,EEG.O1,EEG.O2,EEG.P8,EEG.T8,EEG.FC6,EEG.F4,EEG.F8,EEG.AF4,EEG.RawCq,EEG.Battery,MarkerIndex,MarkerType,MarkerValueInt,EEG.MarkerHardware,CQ.AF3,CQ.F7,CQ.F3,CQ.FC5,CQ.T7,CQ.P7,CQ.O1,CQ.O2,CQ.P8,CQ.T8,CQ.FC6,CQ.F4,CQ.F8,CQ.AF4,CQ.Overall,MOT.CounterMems,MOT.InterpolatedMems,MOT.GyroX,MOT.GyroY,MOT.GyroZ,MOT.AccX,MOT.AccY,MOT.AccZ,MOT.MagX,MOT.MagY,MOT.MagZ,PM.AuditoryAttention.IsActive,PM.AuditoryAttention.Scaled,PM.AuditoryAttention.Raw,PM.AuditoryAttention.Min,PM.AuditoryAttention.Max,PM.VisualAttention.IsActive,PM.VisualAttention.Scaled,PM.VisualAttention.Raw,PM.VisualAttention.Min,PM.VisualAttention.Max,PM.CognitiveStress.IsActive,PM.CognitiveStress.Scaled,PM.CognitiveStress.Raw,PM.CognitiveStress.Min,PM.CognitiveStress.Max,PM.Engagement.IsActive,PM.Engagement.Scaled,PM.Engagement.Raw,PM.Engagement.Min,PM.Engagement.Max,PM.Excitement.IsActive,PM.Excitement.Scaled,PM.Excitement.Raw,PM.Excitement.Min,PM.Excitement.Max,PM.LongTermExcitement,PM.Stress.IsActive,PM.Stress.Scaled,PM.Stress.Raw,PM.Stress.Min,PM.Stress.Max,PM.Relaxation.IsActive,PM.Relaxation.Scaled,PM.Relaxation.Raw,PM.Relaxation.Min,PM.Relaxation.Max,PM.Interest.IsActive,PM.Interest.Scaled,PM.Interest.Raw,PM.Interest.Min,PM.Interest.Max,PM.Focus.IsActive,PM.Focus.Scaled,PM.Focus.Raw,PM.Focus.Min,PM.Focus.Max,POW.AF3.Theta,POW.AF3.Alpha,POW.AF3.BetaL,POW.AF3.BetaH,POW.AF3.Gamma,POW.F7.Theta,POW.F7.Alpha,POW.F7.BetaL,POW.F7.BetaH,POW.F7.Gamma,POW.F3.Theta,POW.F3.Alpha,POW.F3.BetaL,POW.F3.BetaH,POW.F3.Gamma,POW.FC5.Theta,POW.FC5.Alpha,POW.FC5.BetaL,POW.FC5.BetaH,POW.FC5.Gamma,POW.T7.Theta,POW.T7.Alpha,POW.T7.BetaL,POW.T7.BetaH,POW.T7.Gamma,POW.P7.Theta,POW.P7.Alpha,POW.P7.BetaL,POW.P7.BetaH,POW.P7.Gamma,POW.O1.Theta,POW.O1.Alpha,POW.O1.BetaL,POW.O1.BetaH,POW.O1.Gamma,POW.O2.Theta,POW.O2.Alpha,POW.O2.BetaL,POW.O2.BetaH,POW.O2.Gamma,POW.P8.Theta,POW.P8.Alpha,POW.P8.BetaL,POW.P8.BetaH,POW.P8.Gamma,POW.T8.Theta,POW.T8.Alpha,POW.T8.BetaL,POW.T8.BetaH,POW.T8.Gamma,POW.FC6.Theta,POW.FC6.Alpha,POW.FC6.BetaL,POW.FC6.BetaH,POW.FC6.Gamma,POW.F4.Theta,POW.F4.Alpha,POW.F4.BetaL,POW.F4.BetaH,POW.F4.Gamma,POW.F8.Theta,POW.F8.Alpha,POW.F8.BetaL,POW.F8.BetaH,POW.F8.Gamma,POW.AF4.Theta,POW.AF4.Alpha,POW.AF4.BetaL,POW.AF4.BetaH,POW.AF4.Gamma
1598855931.575701,85.000000,0.000000,4216.538574,4217.436035,4213.846191,4218.589844,4213.717773,4213.333496,4211.794922,4216.922852,4218.717773,4221.538574,4270.384766,4957.563965,4216.410156,4225.000000,0.000000,2.000000,,,,0.000000,0.000000,0.000000,0.000000,0.000000,0.000000,0.000000,0.000000,0.000000,0.000000,0.000000,0.000000,0.000000,0.000000,0.000000,0.000000,,,,,,,,,,,,,,,,,,,,,,,,,,,,,,,,,,,,,,,,,,,,,,,,,,,,,,,,,,,,,,,,,,,,,,,,,,,,,,,,,,,,,,,,,,,,,,,,,,,,,,,,,,,,,,,,,,,,,,,,,,,,,,,
1598855931.583481,86.000000,0.000000,4215.128418,4215.384766,4211.410156,4216.794922,4217.179688,4212.692383,4212.948730,4216.922852,4217.820313,4222.820313,4269.358887,4956.538574,4216.538574,4226.538574,0.000000,2.000000,,,,0.000000,0.000000,0.000000,0.000000,0.000000,0.000000,0.000000,0.000000,0.000000,0.000000,0.000000,0.000000,0.000000,0.000000,0.000000,0.000000,43.000000,0.000000,8211.000000,8091.000000,8205.000000,12237.000000,7711.000000,8579.000000,8140.000000,8113.000000,7646.000000,,,,,,,,,,,,,,,,,,,,,,,,,,,,,,,,,,,,,,,,,,,,,,,,,,,,,,,,,,,,,,,,,,,,,,,,,,,,,,,,,,,,,,,,,,,,,,,,,,,,,,,,,,,,,,,,,,,,
1598855931.591362,87.000000,0.000000,4216.922852,4216.153809,4216.538574,4218.077148,4213.461426,4214.487305,4210.897461,4216.922852,4216.794922,4221.282227,4270.256348,4957.436035,4218.589844,4222.563965,0.000000,2.000000,,,,0.000000,0.000000,0.000000,0.000000,0.000000,0.000000,0.000000,0.000000,0.000000,0.000000,0.000000,0.000000,0.000000,0.000000,0.000000,0.000000,,,,,,,,,,,,,,,,,,,,,,,,,,,,,,,,,,,,,,,,,,,,,,,,,,,,,,,,,,,,,,,,,,,,,,,,,,,,,,,,,,,,,,,,,,,,,,,,,,,,,,,,,,,,,,,,,,,,,,,,,,,,,,,
1598855931.599243,88.000000,0.000000,4217.051270,4215.256348,4216.282227,4218.077148,4209.871582,4214.871582,4210.769043,4216.922852,4216.410156,4219.871582,4269.871582,4956.922852,4218.717773,4223.077148,0.000000,2.000000,,,,0.000000,0.000000,0.000000,0.000000,0.000000,0.000000,0.000000,0.000000,0.000000,0.000000,0.000000,0.000000,0.000000,0.000000,0.000000,0.000000,44.000000,0.000000,8211.000000,8096.000000,8201.000000,12226.000000,7677.000000,8584.000000,8139.000000,8116.000000,7650.000000,,,,,,,,,,,,,,,,,,,,,,,,,,,,,,,,,,,,,,,,,,,,,,,,,,,,,,,,,,,,,,,,,,,,,,,,,,,,,,,,,,,,,,,,,,,,,,,,,,,,,,,,,,,,,,,,,,,,
1598855931.607123,89.000000,0.000000,4215.128418,4212.692383,4212.948730,4216.922852,4212.179688,4213.333496,4212.820313,4216.922852,4215.384766,4220.000000,4270.128418,4955.769043,4217.179688,4224.615234,0.000000,2.000000,,,,0.000000,0.000000,0.000000,0.000000,0.000000,0.000000,0.000000,0.000000,0.000000,0.000000,0.000000,0.000000,0.000000,0.000000,0.000000,0.000000,,,,,,,,,,,,,,,,,,,,,,,,,,,,,,,,,,,,,,,,,,,,,,,,,,,,,,,,,,,,,,,,,,,,,,,,,,,,,,,,,,,,,,,,,,,,,,,,,,,,,,,,,,,,,,,,,,,,,,,,,,,,,,,
1598855931.615004,90.000000,0.000000,4216.922852,4214.743652,4215.000000,4217.307617,4213.589844,4215.000000,4212.179688,4216.922852,4218.461426,4221.538574,4272.051270,4953.205078,4215.256348,4221.538574,0.000000,2.000000,,,,0.000000,0.000000,0.000000,0.000000,0.000000,0.000000,0.000000,0.000000,0.000000,0.000000,0.000000,0.000000,0.000000,0.000000,0.000000,0.000000,45.000000,0.000000,8209.000000,8092.000000,8203.000000,12227.000000,7662.000000,8569.000000,8141.000000,8112.000000,7649.000000,,,,,,,,,,,,,,,,,,,,,,,,,,,,,,,,,,,,,,,,,,,,,,,,,,,,,,,,,,,,,,,,,,,,,,,,,,,,,,,,,,,,,,,,,,,,,,,,,,,,,,,,,,,,,,,,,,,,
1598855931.622885,91.000000,0.000000,4218.333496,4217.436035,4218.077148,4218.846191,4211.922852,4216.666504,4210.512695,4216.922852,4221.025879,4220.641113,4270.000000,4953.077148,4215.256348,4222.051270,0.000000,2.000000,,,,0.000000,0.000000,0.000000,0.000000,0.000000,0.000000,0.000000,0.000000,0.000000,0.000000,0.000000,0.000000,0.000000,0.000000,0.000000,0.000000,,,,,,,,,,,,,,,,,,,,,,,,,,,,,,,,,,,,,,,,,,,,,,,,,,,,,,,,,,,,,,,,,,,,,,,,,,,,,,,,,,,,,,,,,,,,,,,,,,,,,,,,,,,,,,,,,,,,,,,,,,,,,,,
1598855931.630765,92.000000,0.000000,4215.512695,4213.461426,4219.358887,4215.897461,4211.025879,4215.897461,4211.794922,4216.922852,4217.307617,4219.358887,4267.179688,4956.025879,4217.179688,4223.717773,0.000000,2.000000,,,,0.000000,0.000000,0.000000,0.000000,0.000000,0.000000,0.000000,0.000000,0.000000,0.000000,0.000000,0.000000,0.000000,0.000000,0.000000,0.000000,46.000000,0.000000,8208.000000,8085.000000,8206.000000,12220.000000,7686.000000,8591.000000,8144.000000,8114.000000,7648.000000,,,,,,,,,,,,,,,,,,,,,,,,,,,,,,,,,,,,,,,,,,,,,,,,,,,,,,,,,,,,,,,,,,,,,,,,,,,,,,,,,,,,,,,,,,,,,,,,,,,,,,,,,,,,,,,,,,,,
1598855931.638646,93.000000,0.000000,4213.333496,4209.615234,4220.897461,4215.897461,4211.538574,4215.256348,4213.589844,4216.922852,4213.717773,4220.384766,4269.230957,4958.077148,4219.871582,4222.820313,0.000000,2.000000,,,,0.000000,0.000000,0.000000,0.000000,0.000000,0.000000,0.000000,0.000000,0.000000,0.000000,0.000000,0.000000,0.000000,0.000000,0.000000,0.000000,,,,,,,,,,,,,,,,,,,,,,,,,,,,,,,,,,,,,,,,,,,,,,,,,,,,,,,,,,,,,,,,,,,,,,,,,,,,,,,,,,,,,,,,,,,,,,,,,,,,,,,,,,,,,,,,,,,,,,,,,,,,,,,
1598855931.646527,94.000000,0.000000,4215.512695,4212.948730,4218.589844,4219.871582,4212.692383,4214.743652,4214.358887,4216.922852,4217.692383,4221.410156,4271.538574,4956.922852,4222.051270,4220.256348,0.000000,2.000000,,,,0.000000,0.000000,0.000000,0.000000,0.000000,0.000000,0.000000,0.000000,0.000000,0.000000,0.000000,0.000000,0.000000,0.000000,0.000000,0.000000,47.000000,0.000000,8208.000000,8091.000000,8207.000000,12218.000000,7683.000000,8581.000000,8143.000000,8115.000000,7650.000000,,,,,,,,,,,,,,,,,,,,,,,,,,,,,,,,,,,,,,,,,,,,,,,,,,,,,,,,,,,,,,,,,,,,,,,,,,,,,,,,,,,,,,,,,,,,,,,,,,,,,,,,,,,,,,,,,,,,
1598855931.654307,95.000000,0.000000,4217.820313,4218.333496,4217.307617,4220.384766,4213.077148,4213.077148,4212.179688,4216.922852,4220.384766,4220.897461,4270.769043,4955.769043,4218.333496,4220.384766,0.000000,2.000000,,,,0.000000,0.000000,0.000000,0.000000,0.000000,0.000000,0.000000,0.000000,0.000000,0.000000,0.000000,0.000000,0.000000,0.000000,0.000000,0.000000,,,,,,,,,,,,,,,,,,,,,,,,,,,,,,,,,,,,,,,,,,,,,,,,,,,,,,,,,,,,,,,,,,,,,,,,,,,,,,,,,,,,,,,,,,,,,,,,,,,,,,,,,,,,,,,,,,,,,,,,,,,,,,,
1598855931.662188,96.000000,0.000000,4215.897461,4214.102539,4217.692383,4215.128418,4212.051270,4212.307617,4210.256348,4216.922852,4219.487305,4221.153809,4270.384766,4955.769043,4217.436035,4224.230957,0.000000,2.000000,,,,0.000000,0.000000,0.000000,0.000000,0.000000,0.000000,0.000000,0.000000,0.000000,0.000000,0.000000,0.000000,0.000000,0.000000,0.000000,0.000000,48.000000,0.000000,8208.000000,8091.000000,8207.000000,12221.000000,7664.000000,8585.000000,8142.000000,8118.000000,7648.000000,,,,,,,,,,,,,,,,,,,,,,,,,,,,,,,,,,,,,,,,,,,,,,,,,,,,,,,,,,,,,,,,,,,,,,,,,,,,,,,,,,,,,,,,,,,,,,,,,,,,,,,,,,,,,,,,,,,,
1598855931.670068,97.000000,0.000000,4214.743652,4208.846191,4217.820313,4214.871582,4212.179688,4213.589844,4212.820313,4216.922852,4218.846191,4220.641113,4271.282227,4957.051270,4217.307617,4224.615234,0.000000,2.000000,,,,0.000000,0.000000,0.000000,0.000000,0.000000,0.000000,0.000000,0.000000,0.000000,0.000000,0.000000,0.000000,0.000000,0.000000,0.000000,0.000000,,,,,,,,,,,,,,,,,,,,,,,,,,,,,,,,,,,,,,,,,,,,,,,,,,,,,,,,,,,,,,,,,,,,,,,,,,,,,,,,,,,,,,,,,,,,,,,,,,,,,,,,,,,,,,,,,,,,,,,,,,,,,,,
1598855931.677949,98.000000,0.000000,4215.897461,4211.282227,4215.897461,4218.461426,4212.179688,4212.436035,4212.051270,4216.922852,4219.102539,4219.743652,4272.820313,4955.384766,4217.820313,4221.538574,0.000000,2.000000,1,1,,0.000000,0.000000,0.000000,0.000000,0.000000,0.000000,0.000000,0.000000,0.000000,0.000000,0.000000,0.000000,0.000000,0.000000,0.000000,0.000000,49.000000,0.000000,8207.000000,8092.000000,8202.000000,12233.000000,7683.000000,8572.000000,8140.000000,8115.000000,7645.000000,,,,,,,,,,,,,,,,,,,,,,,,,,,,,,,,,,,,,,,,,,,,,,,,,,,,,,,,,,,,,,,,,,,,,,,,,,,,,,,,,,,,,,,,,,,,,,,,,,,,,,,,,,,,,,,,,,,,
1598855931.685829,99.000000,0.000000,4215.897461,4212.051270,4216.794922,4218.589844,4213.333496,4211.282227,4207.820313,4216.922852,4221.410156,4220.256348,4270.384766,4954.615234,4217.563965,4219.871582,0.000000,2.000000,,,,0.000000,0.000000,0.000000,0.000000,0.000000,0.000000,0.000000,0.000000,0.000000,0.000000,0.000000,0.000000,0.000000,0.000000,0.000000,0.000000,,,,,,,,,,,,,,,,,,,,,,,,,,,,,,,,,,,,,,,,,,,,,,,,,,,,,,,,,,0.010510,0.003276,0.006398,0.003624,0.007419,0.025315,0.035391,0.067899,0.034868,0.044849,0.041590,0.024654,0.039349,0.033110,0.024750,0.029165,0.004712,0.025806,0.024104,0.025737,0.024100,0.029166,0.021019,0.015918,0.031114,0.019678,0.023155,0.013182,0.015389,0.019177,0.008629,0.009981,0.017504,0.006755,0.015434,0.011988,0.008411,0.002609,0.002045,0.001738,0.039775,0.024903,0.034200,0.047582,0.030042,0.057047,0.038308,0.046071,0.040474,0.028990,0.009641,0.022276,0.013025,0.021267,0.022624,0.021064,0.023517,0.009679,0.028183,0.045151,0.057981,0.054039,0.022407,0.032453,0.029525,0.045082,0.024413,0.057799,0.028975,0.036523
1598855931.693710,100.000000,0.000000,4215.641113,4211.410156,4216.153809,4215.641113,4212.307617,4214.358887,4208.974121,4216.922852,4222.307617,4220.641113,4267.179688,4956.794922,4218.077148,4222.436035,0.000000,2.000000,,,,0.000000,0.000000,0.000000,0.000000,0.000000,0.000000,0.000000,0.000000,0.000000,0.000000,0.000000,0.000000,0.000000,0.000000,0.000000,0.000000,50.000000,0.000000,8208.000000,8092.000000,8206.000000,12227.000000,7650.000000,8570.000000,8142.000000,8115.000000,7648.000000,,,,,,,,,,,,,,,,,,,,,,,,,,,,,,,,,,,,,,,,,,,,,,,,,,,,,,,,,,,,,,,,,,,,,,,,,,,,,,,,,,,,,,,,,,,,,,,,,,,,,,,,,,,,,,,,,,,,
1598855931.701590,101.000000,0.000000,4215.256348,4214.230957,4215.769043,4217.179688,4211.410156,4215.512695,4213.717773,4216.922852,4219.358887,4219.487305,4267.692383,4955.384766,4217.051270,4222.948730,0.000000,2.000000,,,,0.000000,0.000000,0.000000,0.000000,0.000000,0.000000,0.000000,0.000000,0.000000,0.000000,0.000000,0.000000,0.000000,0.000000,0.000000,0.000000,,,,,,,,,,,,,,,,,,,,,,,,,,,,,,,,,,,,,,,,,,,,,,,,,,,,,,,,,,,,,,,,,,,,,,,,,,,,,,,,,,,,,,,,,,,,,,,,,,,,,,,,,,,,,,,,,,,,,,,,,,,,,,,
1598855931.709471,102.000000,0.000000,4214.230957,4216.794922,4216.538574,4216.538574,4214.743652,4211.410156,4212.692383,4216.922852,4217.179688,4220.000000,4269.487305,4954.230957,4220.641113,4221.922852,0.000000,2.000000,,,,0.000000,0.000000,0.000000,0.000000,0.000000,0.000000,0.000000,0.000000,0.000000,0.000000,0.000000,0.000000,0.000000,0.000000,0.000000,0.000000,51.000000,0.000000,8205.000000,8087.000000,8203.000000,12225.000000,7662.000000,8565.000000,8142.000000,8115.000000,7647.000000,,,,,,,,,,,,,,,,,,,,,,,,,,,,,,,,,,,,,,,,,,,,,,,,,,,,,,,,,,,,,,,,,,,,,,,,,,,,,,,,,,,,,,,,,,,,,,,,,,,,,,,,,,,,,,,,,,,,
1598855931.717251,103.000000,0.000000,4215.897461,4215.769043,4219.358887,4214.871582,4216.794922,4212.948730,4210.769043,4216.922852,4217.948730,4221.025879,4269.102539,4955.000000,4220.641113,4222.820313,0.000000,2.000000,,,,0.000000,0.000000,0.000000,0.000000,0.000000,0.000000,0.000000,0.000000,0.000000,0.000000,0.000000,0.000000,0.000000,0.000000,0.000000,0.000000,,,,,,,,,,,,,,,,,,,,,,,,,,,,,,,,,,,,,,,,,,,,,,,,,,,,,,,,,,,,,,,,,,,,,,,,,,,,,,,,,,,,,,,,,,,,,,,,,,,,,,,,,,,,,,,,,,,,,,,,,,,,,,,
1598855931.725132,104.000000,0.000000,4217.563965,4215.897461,4220.769043,4216.794922,4212.948730,4213.461426,4213.077148,4216.922852,4219.615234,4219.487305,4270.512695,4954.358887,4214.871582,4224.871582,0.000000,2.000000,,,,0.000000,0.000000,0.000000,0.000000,0.000000,0.000000,0.000000,0.000000,0.000000,0.000000,0.000000,0.000000,0.000000,0.000000,0.000000,0.000000,52.000000,0.000000,8207.000000,8092.000000,8198.000000,12217.000000,7658.000000,8587.000000,8141.000000,8114.000000,7647.000000,,,,,,,,,,,,,,,,,,,,,,,,,,,,,,,,,,,,,,,,,,,,,,,,,,,,,,,,,,,,,,,,,,,,,,,,,,,,,,,,,,,,,,,,,,,,,,,,,,,,,,,,,,,,,,,,,,,,
1598855931.733013,105.000000,0.000000,4216.153809,4217.051270,4217.948730,4219.358887,4209.871582,4209.358887,4213.717773,4216.922852,4217.179688,4220.128418,4269.487305,4952.948730,4214.358887,4224.743652,0.000000,2.000000,,,,0.000000,0.000000,0.000000,0.000000,0.000000,0.000000,0.000000,0.000000,0.000000,0.000000,0.000000,0.000000,0.000000,0.000000,0.000000,0.000000,,,,,,,,,,,,,,,,,,,,,,,,,,,,,,,,,,,,,,,,,,,,,,,,,,,,,,,,,,,,,,,,,,,,,,,,,,,,,,,,,,,,,,,,,,,,,,,,,,,,,,,,,,,,,,,,,,,,,,,,,,,,,,,
1598855931.740893,106.000000,0.000000,4215.384766,4215.384766,4218.717773,4218.077148,4211.282227,4211.025879,4211.153809,4216.922852,4214.743652,4222.051270,4269.743652,4957.051270,4217.436035,4223.846191,0.000000,2.000000,,,,0.000000,0.000000,0.000000,0.000000,0.000000,0.000000,0.000000,0.000000,0.000000,0.000000,0.000000,0.000000,0.000000,0.000000,0.000000,0.000000,53.000000,0.000000,8210.000000,8095.000000,8195.000000,12223.000000,7654.000000,8569.000000,8143.000000,8112.000000,7647.000000,,,,,,,,,,,,,,,,,,,,,,,,,,,,,,,,,,,,,,,,,,,,,,,,,,,,,,,,,,,,,,,,,,,,,,,,,,,,,,,,,,,,,,,,,,,,,,,,,,,,,,,,,,,,,,,,,,,,
1598855931.748774,107.000000,0.000000,4216.666504,4215.256348,4219.615234,4215.512695,4213.717773,4216.666504,4211.666504,4216.922852,4218.205078,4220.256348,4272.436035,4958.717773,4216.794922,4224.102539,0.000000,2.000000,,,,0.000000,0.000000,0.000000,0.000000,0.000000,0.000000,0.000000,0.000000,0.000000,0.000000,0.000000,0.000000,0.000000,0.000000,0.000000,0.000000,,,,,,,,,,,,,,,,,,,,,,,,,,,,,,,,,,,,,,,,,,,,,,,,,,,,,,,,,,,,,,,,,,,,,,,,,,,,,,,,,,,,,,,,,,,,,,,,,,,,,,,,,,,,,,,,,,,,,,,,,,,,,,,
1598855931.756655,108.000000,0.000000,4216.282227,4214.871582,4216.538574,4215.384766,4213.205078,4212.948730,4213.333496,4216.922852,4220.641113,4220.384766,4270.512695,4956.282227,4216.153809,4225.256348,0.000000,2.000000,,,,0.000000,0.000000,0.000000,0.000000,0.000000,0.000000,0.000000,0.000000,0.000000,0.000000,0.000000,0.000000,0.000000,0.000000,0.000000,0.000000,54.000000,0.000000,8211.000000,8092.000000,8203.000000,12228.000000,7651.000000,8569.000000,8141.000000,8113.000000,7645.000000,,,,,,,,,,,,,,,,,,,,,,,,,,,,,,,,,,,,,,,,,,,,,,,,,,,,,,,,,,,,,,,,,,,,,,,,,,,,,,,,,,,,,,,,,,,,,,,,,,,,,,,,,,,,,,,,,,,,
1598855931.764535,109.000000,0.000000,4217.179688,4215.641113,4214.743652,4217.563965,4210.769043,4209.102539,4211.794922,4216.922852,4218.589844,4223.077148,4266.538574,4955.769043,4216.410156,4223.205078,0.000000,2.000000,,,,0.000000,0.000000,0.000000,0.000000,0.000000,0.000000,0.000000,0.000000,0.000000,0.000000,0.000000,0.000000,0.000000,0.000000,0.000000,0.000000,,,,,,,,,,,,,,,,,,,,,,,,,,,,,,,,,,,,,,,,,,,,,,,,,,,,,,,,,,,,,,,,,,,,,,,,,,,,,,,,,,,,,,,,,,,,,,,,,,,,,,,,,,,,,,,,,,,,,,,,,,,,,,,
1598855931.772416,110.000000,0.000000,4218.589844,4216.153809,4217.948730,4219.871582,4211.282227,4214.358887,4210.000000,4216.922852,4218.077148,4220.256348,4269.358887,4960.000000,4217.692383,4222.307617,0.000000,2.000000,,,,0.000000,0.000000,0.000000,0.000000,0.000000,0.000000,0.000000,0.000000,0.000000,0.000000,0.000000,0.000000,0.000000,0.000000,0.000000,0.000000,55.000000,0.000000,8213.000000,8097.000000,8204.000000,12225.000000,7677.000000,8572.000000,8141.000000,8112.000000,7647.000000,,,,,,,,,,,,,,,,,,,,,,,,,,,,,,,,,,,,,,,,,,,,,,,,,,,,,,,,,,,,,,,,,,,,,,,,,,,,,,,,,,,,,,,,,,,,,,,,,,,,,,,,,,,,,,,,,,,,
1598855931.780297,111.000000,0.000000,4215.256348,4214.358887,4216.794922,4217.051270,4212.948730,4216.666504,4210.512695,4216.922852,4220.384766,4218.333496,4272.051270,4960.384766,4220.384766,4222.436035,0.000000,2.000000,,,,0.000000,0.000000,0.000000,0.000000,0.000000,0.000000,0.000000,0.000000,0.000000,0.000000,0.000000,0.000000,0.000000,0.000000,0.000000,0.000000,,,,,,,,,,,,,,,,,,,,,,,,,,,,,,,,,,,,,,,,,,,,,,,,,,,,,,,,,,,,,,,,,,,,,,,,,,,,,,,,,,,,,,,,,,,,,,,,,,,,,,,,,,,,,,,,,,,,,,,,,,,,,,,
1598855931.788078,112.000000,0.000000,4213.077148,4213.333496,4216.282227,4216.666504,4210.769043,4213.589844,4210.000000,4216.922852,4220.641113,4220.897461,4269.230957,4959.102539,4220.256348,4224.358887,0.000000,2.000000,,,,0.000000,0.000000,0.000000,0.000000,0.000000,0.000000,0.000000,0.000000,0.000000,0.000000,0.000000,0.000000,0.000000,0.000000,0.000000,0.000000,56.000000,0.000000,8208.000000,8091.000000,8204.000000,12225.000000,7670.000000,8580.000000,8143.000000,8130.000000,7648.000000,,,,,,,,,,,,,,,,,,,,,,,,,,,,,,,,,,,,,,,,,,,,,,,,,,,,,,,,,,,,,,,,,,,,,,,,,,,,,,,,,,,,,,,,,,,,,,,,,,,,,,,,,,,,,,,,,,,,
1598855931.795958,113.000000,0.000000,4216.025879,4215.128418,4213.333496,4218.077148,4208.717773,4212.948730,4210.128418,4216.922852,4219.230957,4222.051270,4268.333496,4957.563965,4219.743652,4224.230957,0.000000,2.000000,,,,0.000000,0.000000,0.000000,0.000000,0.000000,0.000000,0.000000,0.000000,0.000000,0.000000,0.000000,0.000000,0.000000,0.000000,0.000000,0.000000,,,,,,,,,,,,,,,,,,,,,,,,,,,,,,,,,,,,,,,,,,,,,,,,,,,,,,,,,,,,,,,,,,,,,,,,,,,,,,,,,,,,,,,,,,,,,,,,,,,,,,,,,,,,,,,,,,,,,,,,,,,,,,,
1598855931.803839,114.000000,0.000000,4217.436035,4216.153809,4212.179688,4216.666504,4212.307617,4214.487305,4211.666504,4216.922852,4217.692383,4219.615234,4268.974121,4956.922852,4217.692383,4221.922852,0.000000,2.000000,,,,0.000000,0.000000,0.000000,0.000000,0.000000,0.000000,0.000000,0.000000,0.000000,0.000000,0.000000,0.000000,0.000000,0.000000,0.000000,0.000000,57.000000,0.000000,8205.000000,8093.000000,8202.000000,12223.000000,7671.000000,8576.000000,8142.000000,8112.000000,7650.000000,,,,,,,,,,,,,,,,,,,,,,,,,,,,,,,,,,,,,,,,,,,,,,,,,,,,,,,,,,,,,,,,,,,,,,,,,,,,,,,,,,,,,,,,,,,,,,,,,,,,,,,,,,,,,,,,,,,,
1598855931.811720,115.000000,0.000000,4216.282227,4215.769043,4216.153809,4214.743652,4215.769043,4210.641113,4211.794922,4216.922852,4217.179688,4219.871582,4268.717773,4953.974121,4214.615234,4221.794922,0.000000,2.000000,,,,0.000000,0.000000,0.000000,0.000000,0.000000,0.000000,0.000000,0.000000,0.000000,0.000000,0.000000,0.000000,0.000000,0.000000,0.000000,0.000000,,,,,,,,,,,,,,,,,,,,,,,,,,,,,,,,,,,,,,,,,,,,,,,,,,,,,,,,,,0.009063,0.004824,0.006684,0.003050,0.007372,0.029001,0.033274,0.067230,0.028811,0.042111,0.041887,0.017788,0.032055,0.036008,0.026012,0.022007,0.005987,0.027719,0.022216,0.026720,0.019209,0.033694,0.016841,0.013277,0.030005,0.019208,0.020550,0.010198,0.016761,0.020746,0.009829,0.010558,0.015328,0.005966,0.014933,0.010279,0.006497,0.001708,0.001587,0.001277,0.032115,0.016211,0.030589,0.048860,0.031457,0.057342,0.038371,0.043965,0.037032,0.028406,0.009332,0.021601,0.013276,0.022161,0.022037,0.023440,0.019991,0.011587,0.029888,0.041377,0.052294,0.048766,0.021403,0.028861,0.032112,0.041970,0.027467,0.064863,0.028714,0.038615
1598855931.819600,116.000000,0.000000,4216.538574,4216.922852,4219.743652,4217.436035,4215.384766,4211.153809,4211.538574,4216.922852,4215.641113,4221.025879,4266.410156,4954.871582,4213.589844,4223.974121,0.000000,2.000000,,,,0.000000,0.000000,0.000000,0.000000,0.000000,0.000000,0.000000,0.000000,0.000000,0.000000,0.000000,0.000000,0.000000,0.000000,0.000000,0.000000,58.000000,0.000000,8206.000000,8088.000000,8204.000000,12227.000000,7676.000000,8582.000000,8143.000000,8116.000000,7647.000000,,,,,,,,,,,,,,,,,,,,,,,,,,,,,,,,,,,,,,,,,,,,,,,,,,,,,,,,,,,,,,,,,,,,,,,,,,,,,,,,,,,,,,,,,,,,,,,,,,,,,,,,,,,,,,,,,,,,
1598855931.827481,117.000000,0.000000,4216.282227,4217.820313,4217.563965,4216.153809,4213.461426,4214.871582,4210.256348,4216.922852,4215.897461,4220.128418,4267.820313,4958.846191,4218.717773,4226.153809,0.000000,2.000000,,,,0.000000,0.000000,0.000000,0.000000,0.000000,0.000000,0.000000,0.000000,0.000000,0.000000,0.000000,0.000000,0.000000,0.000000,0.000000,0.000000,,,,,,,,,,,,,,,,,,,,,,,,,,,,,,,,,,,,,,,,,,,,,,,,,,,,,,,,,,,,,,,,,,,,,,,,,,,,,,,,,,,,,,,,,,,,,,,,,,,,,,,,,,,,,,,,,,,,,,,,,,,,,,,
1598855931.835362,118.000000,0.000000,4215.897461,4216.666504,4217.307617,4215.641113,4214.487305,4213.846191,4210.641113,4216.922852,4221.538574,4219.230957,4270.897461,4954.358887,4218.333496,4223.589844,0.000000,2.000000,,,,0.000000,0.000000,0.000000,0.000000,0.000000,0.000000,0.000000,0.000000,0.000000,0.000000,0.000000,0.000000,0.000000,0.000000,0.000000,0.000000,59.000000,0.000000,8207.000000,8091.000000,8202.000000,12225.000000,7669.000000,8575.000000,8142.000000,8111.000000,7650.000000,,,,,,,,,,,,,,,,,,,,,,,,,,,,,,,,,,,,,,,,,,,,,,,,,,,,,,,,,,,,,,,,,,,,,,,,,,,,,,,,,,,,,,,,,,,,,,,,,,,,,,,,,,,,,,,,,,,,
1598855931.843242,119.000000,0.000000,4216.922852,4215.897461,4218.974121,4218.333496,4213.461426,4213.717773,4210.384766,4216.922852,4223.974121,4220.512695,4269.871582,4949.230957,4215.769043,4220.512695,0.000000,2.000000,,,,0.000000,0.000000,0.000000,0.000000,0.000000,0.000000,0.000000,0.000000,0.000000,0.000000,0.000000,0.000000,0.000000,0.000000,0.000000,0.000000,,,,,,,,,,,,,,,,,,,,,,,,,,,,,,,,,,,,,,,,,,,,,,,,,,,,,,,,,,,,,,,,,,,,,,,,,,,,,,,,,,,,,,,,,,,,,,,,,,,,,,,,,,,,,,,,,,,,,,,,,,,,,,,
1598855931.851123,120.000000,0.000000,4216.666504,4217.563965,4219.102539,4215.256348,4212.051270,4215.512695,4211.538574,4216.922852,4217.692383,4220.769043,4268.077148,4954.487305,4213.974121,4220.128418,0.000000,2.000000,,,,0.000000,0.000000,0.000000,0.000000,0.000000,0.000000,0.000000,0.000000,0.000000,0.000000,0.000000,0.000000,0.000000,0.000000,0.000000,0.000000,60.000000,0.000000,8204.000000,8095.000000,8202.000000,12222.000000,7662.000000,8579.000000,8140.000000,8114.000000,7647.000000,,,,,,,,,,,,,,,,,,,,,,,,,,,,,,,,,,,,,,,,,,,,,,,,,,,,,,,,,,,,,,,,,,,,,,,,,,,,,,,,,,,,,,,,,,,,,,,,,,,,,,,,,,,,,,,,,,,,
1598855931.858904,121.000000,0.000000,4216.025879,4216.922852,4216.282227,4211.025879,4211.922852,4213.333496,4213.589844,4216.922852,4217.563965,4220.897461,4270.128418,4960.000000,4213.461426,4224.230957,0.000000,2.000000,,,,0.000000,0.000000,0.000000,0.000000,0.000000,0.000000,0.000000,0.000000,0.000000,0.000000,0.000000,0.000000,0.000000,0.000000,0.000000,0.000000,,,,,,,,,,,,,,,,,,,,,,,,,,,,,,,,,,,,,,,,,,,,,,,,,,,,,,,,,,,,,,,,,,,,,,,,,,,,,,,,,,,,,,,,,,,,,,,,,,,,,,,,,,,,,,,,,,,,,,,,,,,,,,,
1598855931.866785,122.000000,0.000000,4218.077148,4214.102539,4214.102539,4215.641113,4212.820313,4213.205078,4213.077148,4216.922852,4221.538574,4221.538574,4268.717773,4955.256348,4213.846191,4223.205078,0.000000,2.000000,,,,0.000000,0.000000,0.000000,0.000000,0.000000,0.000000,0.000000,0.000000,0.000000,0.000000,0.000000,0.000000,0.000000,0.000000,0.000000,0.000000,61.000000,0.000000,8207.000000,8096.000000,8206.000000,12216.000000,7669.000000,8589.000000,8143.000000,8108.000000,7646.000000,,,,,,,,,,,,,,,,,,,,,,,,,,,,,,,,,,,,,,,,,,,,,,,,,,,,,,,,,,,,,,,,,,,,,,,,,,,,,,,,,,,,,,,,,,,,,,,,,,,,,,,,,,,,,,,,,,,,
1598855931.874665,123.000000,0.000000,4218.974121,4212.948730,4216.922852,4218.846191,4212.307617,4213.589844,4209.487305,4216.922852,4219.102539,4220.512695,4265.897461,4953.205078,4216.538574,4218.846191,0.000000,2.000000,,,,0.000000,0.000000,0.000000,0.000000,0.000000,0.000000,0.000000,0.000000,0.000000,0.000000,0.000000,0.000000,0.000000,0.000000,0.000000,0.000000,,,,,,,,,,,,,,,,,,,,,,,,,,,,,,,,,,,,,,,,,,,,,,,,,,,,,,,,,,,,,,,,,,,,,,,,,,,,,,,,,,,,,,,,,,,,,,,,,,,,,,,,,,,,,,,,,,,,,,,,,,,,,,,
1598855931.882546,124.000000,0.000000,4217.051270,4214.871582,4217.436035,4215.384766,4211.538574,4212.563965,4210.769043,4216.922852,4218.717773,4219.743652,4267.692383,4956.666504,4216.538574,4217.948730,0.000000,2.000000,,,,0.000000,0.000000,0.000000,0.000000,0.000000,0.000000,0.000000,0.000000,0.000000,0.000000,0.000000,0.000000,0.000000,0.000000,0.000000,0.000000,62.000000,0.000000,8202.000000,8093.000000,8200.000000,12228.000000,7672.000000,8575.000000,8143.000000,8113.000000,7647.000000,,,,,,,,,,,,,,,,,,,,,,,,,,,,,,,,,,,,,,,,,,,,,,,,,,,,,,,,,,,,,,,,,,,,,,,,,,,,,,,,,,,,,,,,,,,,,,,,,,,,,,,,,,,,,,,,,,,,
1598855931.890427,125.000000,0.000000,4216.025879,4215.384766,4213.589844,4215.000000,4210.897461,4211.153809,4213.974121,4216.922852,4220.256348,4221.410156,4269.487305,4958.717773,4213.846191,4221.153809,0.000000,2.000000,,,,0.000000,0.000000,0.000000,0.000000,0.000000,0.000000,0.000000,0.000000,0.000000,0.000000,0.000000,0.000000,0.000000,0.000000,0.000000,0.000000,,,,,,,,,,,,,,,,,,,,,,,,,,,,,,,,,,,,,,,,,,,,,,,,,,,,,,,,,,,,,,,,,,,,,,,,,,,,,,,,,,,,,,,,,,,,,,,,,,,,,,,,,,,,,,,,,,,,,,,,,,,,,,,
1598855931.898307,126.000000,0.000000,4216.922852,4213.205078,4213.461426,4216.666504,4211.025879,4210.000000,4210.769043,4216.922852,4220.128418,4222.307617,4267.692383,4954.358887,4215.000000,4221.282227,0.000000,2.000000,,,,0.000000,0.000000,0.000000,0.000000,0.000000,0.000000,0.000000,0.000000,0.000000,0.000000,0.000000,0.000000,0.000000,0.000000,0.000000,0.000000,63.000000,0.000000,8210.000000,8086.000000,8205.000000,12233.000000,7704.000000,8573.000000,8145.000000,8112.000000,7648.000000,,,,,,,,,,,,,,,,,,,,,,,,,,,,,,,,,,,,,,,,,,,,,,,,,,,,,,,,,,,,,,,,,,,,,,,,,,,,,,,,,,,,,,,,,,,,,,,,,,,,,,,,,,,,,,,,,,,,
1598855931.906188,127.000000,0.000000,4216.666504,4211.922852,4215.256348,4216.922852,4212.820313,4211.922852,4209.358887,4216.922852,4220.641113,4220.641113,4268.717773,4952.820313,4219.358887,4220.384766,51.000000,2.000000,,,,0.000000,0.000000,0.000000,0.000000,0.000000,0.000000,0.000000,0.000000,0.000000,0.000000,0.000000,0.000000,0.000000,0.000000,0.000000,0.000000,,,,,,,,,,,,,,,,,,,,,,,,,,,,,,,,,,,,,,,,,,,,,,,,,,,,,,,,,,,,,,,,,,,,,,,,,,,,,,,,,,,,,,,,,,,,,,,,,,,,,,,,,,,,,,,,,,,,,,,,,,,,,,,
1598855931.914069,0.000000,0.000000,4216.153809,4214.230957,4211.153809,4216.922852,4213.717773,4216.666504,4212.692383,4216.922852,4222.307617,4221.794922,4269.358887,4955.000000,4220.256348,4221.025879,0.000000,2.000000,,,,0.000000,0.000000,0.000000,0.000000,0.000000,0.000000,0.000000,0.000000,0.000000,0.000000,0.000000,0.000000,0.000000,0.000000,0.000000,0.000000,0.000000,0.000000,8204.000000,8093.000000,8203.000000,12227.000000,7684.000000,8575.000000,8144.000000,8116.000000,7648.000000,,,,,,,,,,,,,,,,,,,,,,,,,,,,,,,,,,,,,,,,,,,,,,,,,,,,,,,,,,,,,,,,,,,,,,,,,,,,,,,,,,,,,,,,,,,,,,,,,,,,,,,,,,,,,,,,,,,,
1598855931.921949,1.000000,0.000000,4216.922852,4218.461426,4213.589844,4216.538574,4211.794922,4215.384766,4212.051270,4216.922852,4218.461426,4221.538574,4267.948730,4955.769043,4215.641113,4222.820313,0.000000,2.000000,,,,0.000000,0.000000,0.000000,0.000000,0.000000,0.000000,0.000000,0.000000,0.000000,0.000000,0.000000,0.000000,0.000000,0.000000,0.000000,0.000000,,,,,,,,,,,,,,,,,,,,,,,,,,,,,,,,,,,,,,,,,,,,,,,,,,,,,,,,,,,,,,,,,,,,,,,,,,,,,,,,,,,,,,,,,,,,,,,,,,,,,,,,,,,,,,,,,,,,,,,,,,,,,,,
1598855931.929730,2.000000,0.000000,4216.922852,4215.000000,4218.077148,4215.256348,4209.615234,4212.051270,4210.769043,4216.922852,4217.179688,4220.128418,4269.358887,4952.820313,4213.846191,4222.820313,0.000000,2.000000,,,,0.000000,0.000000,0.000000,0.000000,0.000000,0.000000,0.000000,0.000000,0.000000,0.000000,0.000000,0.000000,0.000000,0.000000,0.000000,0.000000,1.000000,0.000000,8208.000000,8088.000000,8207.000000,12222.000000,7631.000000,8558.000000,8142.000000,8111.000000,7651.000000,,,,,,,,,,,,,,,,,,,,,,,,,,,,,,,,,,,,,,,,,,,,,,,,,,,,,,,,,,,,,,,,,,,,,,,,,,,,,,,,,,,,,,,,,,,,,,,,,,,,,,,,,,,,,,,,,,,,
1598855931.937611,3.000000,0.000000,4215.897461,4208.974121,4218.333496,4217.436035,4212.179688,4215.128418,4211.794922,4216.922852,4221.025879,4219.487305,4270.256348,4956.410156,4215.384766,4220.128418,0.000000,2.000000,,,,0.000000,0.000000,0.000000,0.000000,0.000000,0.000000,0.000000,0.000000,0.000000,0.000000,0.000000,0.000000,0.000000,0.000000,0.000000,0.000000,,,,,,,,,,,,,,,,,,,,,,,,,,,,,,,,,,,,,,,,,,,,,,,,,,,,,,,,,,0.007671,0.006933,0.006577,0.002599,0.007276,0.032503,0.031177,0.063274,0.024493,0.039640,0.041531,0.012573,0.025799,0.038217,0.027979,0.019792,0.007976,0.029762,0.019796,0.027306,0.017697,0.037454,0.016089,0.013051,0.030538,0.017910,0.018573,0.009418,0.018584,0.023873,0.011213,0.011055,0.014137,0.005457,0.014714,0.008079,0.004378,0.001154,0.001161,0.000877,0.027840,0.010166,0.026535,0.049175,0.033199,0.052144,0.035069,0.040703,0.031688,0.027426,0.008470,0.020573,0.014399,0.022834,0.020949,0.028774,0.018082,0.015676,0.031139,0.036867,0.043948,0.042562,0.021132,0.026572,0.033398,0.040318,0.031326,0.069419,0.030029,0.040568
1598855931.945492,4.000000,0.000000,4215.512695,4213.205078,4216.410156,4218.077148,4213.846191,4214.230957,4212.051270,4216.922852,4221.282227,4220.256348,4267.051270,4959.102539,4217.563965,4219.358887,0.000000,2.000000,,,,0.000000,0.000000,0.000000,0.000000,0.000000,0.000000,0.000000,0.000000,0.000000,0.000000,0.000000,0.000000,0.000000,0.000000,0.000000,0.000000,2.000000,0.000000,8208.000000,8089.000000,8200.000000,12228.000000,7702.000000,8590.000000,8141.000000,8114.000000,7650.000000,,,,,,,,,,,,,,,,,,,,,,,,,,,,,,,,,,,,,,,,,,,,,,,,,,,,,,,,,,,,,,,,,,,,,,,,,,,,,,,,,,,,,,,,,,,,,,,,,,,,,,,,,,,,,,,,,,,,
1598855931.953372,5.000000,0.000000,4216.282227,4217.948730,4217.692383,4218.589844,4212.948730,4212.563965,4209.743652,4216.922852,4219.102539,4221.666504,4267.692383,4954.743652,4215.384766,4224.102539,0.000000,2.000000,,,,0.000000,0.000000,0.000000,0.000000,0.000000,0.000000,0.000000,0.000000,0.000000,0.000000,0.000000,0.000000,0.000000,0.000000,0.000000,0.000000,,,,,,,,,,,,,,,,,,,,,,,,,,,,,,,,,,,,,,,,,,,,,,,,,,,,,,,,,,,,,,,,,,,,,,,,,,,,,,,,,,,,,,,,,,,,,,,,,,,,,,,,,,,,,,,,,,,,,,,,,,,,,,,
1598855931.961253,6.000000,0.000000,4215.897461,4214.358887,4216.025879,4216.538574,4213.205078,4215.769043,4209.871582,4216.922852,4218.974121,4223.077148,4271.922852,4953.333496,4215.897461,4225.769043,0.000000,2.000000,,,,0.000000,0.000000,0.000000,0.000000,0.000000,0.000000,0.000000,0.000000,0.000000,0.000000,0.000000,0.000000,0.000000,0.000000,0.000000,0.000000,3.000000,0.000000,8207.000000,8093.000000,8202.000000,12229.000000,7671.000000,8579.000000,8145.000000,8116.000000,7647.000000,,,,,,,,,,,,,,,,,,,,,,,,,,,,,,,,,,,,,,,,,,,,,,,,,,,,,,,,,,,,,,,,,,,,,,,,,,,,,,,,,,,,,,,,,,,,,,,,,,,,,,,,,,,,,,,,,,,,
1598855931.969134,7.000000,0.000000,4215.256348,4211.794922,4214.743652,4216.666504,4212.051270,4216.282227,4212.692383,4216.922852,4219.615234,4220.000000,4268.461426,4957.948730,4216.410156,4221.538574,0.000000,2.000000,,,,0.000000,0.000000,0.000000,0.000000,0.000000,0.000000,0.000000,0.000000,0.000000,0.000000,0.000000,0.000000,0.000000,0.000000,0.000000,0.000000,,,,,,,,,,,,,,,,,,,,,,,,,,,,,,,,,,,,,,,,,,,,,,,,,,,,,,,,,,,,,,,,,,,,,,,,,,,,,,,,,,,,,,,,,,,,,,,,,,,,,,,,,,,,,,,,,,,,,,,,,,,,,,,
1598855931.977014,8.000000,0.000000,4214.871582,4214.358887,4213.589844,4217.948730,4208.717773,4210.641113,4212.820313,4216.922852,4221.025879,4217.820313,4266.922852,4957.820313,4216.410156,4221.025879,0.000000,2.000000,,,,0.000000,0.000000,0.000000,0.000000,0.000000,0.000000,0.000000,0.000000,0.000000,0.000000,0.000000,0.000000,0.000000,0.000000,0.000000,0.000000,4.000000,0.000000,8204.000000,8091.000000,8202.000000,12225.000000,7692.000000,8583.000000,8146.000000,8118.000000,7645.000000,,,,,,,,,,,,,,,,,,,,,,,,,,,,,,,,,,,,,,,,,,,,,,,,,,,,,,,,,,,,,,,,,,,,,,,,,,,,,,,,,,,,,,,,,,,,,,,,,,,,,,,,,,,,,,,,,,,,
1598855931.984895,9.000000,0.000000,4214.358887,4214.615234,4214.102539,4218.461426,4211.282227,4211.025879,4210.384766,4216.922852,4220.000000,4219.358887,4271.922852,4954.743652,4214.871582,4224.615234,0.000000,2.000000,,,,0.000000,0.000000,0.000000,0.000000,0.000000,0.000000,0.000000,0.000000,0.000000,0.000000,0.000000,0.000000,0.000000,0.000000,0.000000,0.000000,,,,,,,,,,,,,,,,,,,,,,,,,,,,,,,,,,,,,,,,,,,,,,,,,,,,,,,,,,,,,,,,,,,,,,,,,,,,,,,,,,,,,,,,,,,,,,,,,,,,,,,,,,,,,,,,,,,,,,,,,,,,,,,
1598855931.992676,10.000000,0.000000,4215.641113,4213.461426,4215.897461,4216.666504,4214.102539,4216.282227,4209.615234,4216.922852,4217.692383,4217.436035,4272.563965,4955.512695,4217.820313,4224.743652,0.000000,2.000000,,,,0.000000,0.000000,0.000000,0.000000,0.000000,0.000000,0.000000,0.000000,0.000000,0.000000,0.000000,0.000000,0.000000,0.000000,0.000000,0.000000,5.000000,0.000000,8212.000000,8089.000000,8205.000000,12232.000000,7670.000000,8570.000000,8146.000000,8112.000000,7648.000000,,,,,,,,,,,,,,,,,,,,,,,,,,,,,,,,,,,,,,,,,,,,,,,,,,,,,,,,,,,,,,,,,,,,,,,,,,,,,,,,,,,,,,,,,,,,,,,,,,,,,,,,,,,,,,,,,,,,
1598855932.000557,11.000000,0.000000,4217.307617,4216.794922,4218.333496,4216.025879,4211.922852,4215.769043,4212.820313,4216.922852,4219.743652,4216.410156,4268.589844,4956.282227,4222.051270,4222.436035,0.000000,2.000000,,,,0.000000,0.000000,0.000000,0.000000,0.000000,0.000000,0.000000,0.000000,0.000000,0.000000,0.000000,0.000000,0.000000,0.000000,0.000000,0.000000,,,,,,,,,,,,,,,,,,,,,,,,,,,,,,,,,,,,,,,,,,,,,,,,,,,,,,,,,,,,,,,,,,,,,,,,,,,,,,,,,,,,,,,,,,,,,,,,,,,,,,,,,,,,,,,,,,,,,,,,,,,,,,,
1598855932.008437,12.000000,0.000000,4216.282227,4215.897461,4216.922852,4216.794922,4210.128418,4209.358887,4212.563965,4216.922852,4221.538574,4220.641113,4269.615234,4955.256348,4222.692383,4223.461426,0.000000,2.000000,,,,0.000000,0.000000,0.000000,0.000000,0.000000,0.000000,0.000000,0.000000,0.000000,0.000000,0.000000,0.000000,0.000000,0.000000,0.000000,0.000000,6.000000,0.000000,8204.000000,8091.000000,8199.000000,12225.000000,7697.000000,8583.000000,8142.000000,8108.000000,7648.000000,,,,,,,,,,,,,,,,,,,,,,,,,,,,,,,,,,,,,,,,,,,,,,,,,,,,,,,,,,,,,,,,,,,,,,,,,,,,,,,,,,,,,,,,,,,,,,,,,,,,,,,,,,,,,,,,,,,,
1598855932.016318,13.000000,0.000000,4215.897461,4210.769043,4214.871582,4217.692383,4211.794922,4209.358887,4210.384766,4216.922852,4215.512695,4223.205078,4269.230957,4953.717773,4217.692383,4223.717773,0.000000,2.000000,,,,0.000000,0.000000,0.000000,0.000000,0.000000,0.000000,0.000000,0.000000,0.000000,0.000000,0.000000,0.000000,0.000000,0.000000,0.000000,0.000000,,,,,,,,,,,,,,,,,,,,,,,,,,,,,,,,,,,,,,,,,,,,,,,,,,,,,,,,,,,,,,,,,,,,,,,,,,,,,,,,,,,,,,,,,,,,,,,,,,,,,,,,,,,,,,,,,,,,,,,,,,,,,,,
1598855932.024199,14.000000,0.000000,4217.692383,4211.410156,4216.282227,4216.666504,4213.205078,4215.000000,4212.051270,4216.922852,4213.589844,4218.717773,4267.692383,4955.897461,4215.000000,4222.563965,0.000000,2.000000,,,,0.000000,0.000000,0.000000,0.000000,0.000000,0.000000,0.000000,0.000000,0.000000,0.000000,0.000000,0.000000,0.000000,0.000000,0.000000,0.000000,7.000000,0.000000,8208.000000,8094.000000,8198.000000,12235.000000,7683.000000,8574.000000,8142.000000,8116.000000,7647.000000,,,,,,,,,,,,,,,,,,,,,,,,,,,,,,,,,,,,,,,,,,,,,,,,,,,,,,,,,,,,,,,,,,,,,,,,,,,,,,,,,,,,,,,,,,,,,,,,,,,,,,,,,,,,,,,,,,,,
1598855932.032079,15.000000,0.000000,4217.179688,4216.922852,4216.153809,4217.051270,4212.179688,4215.512695,4215.256348,4216.922852,4218.333496,4216.153809,4268.846191,4958.205078,4216.922852,4223.589844,0.000000,2.000000,,,,0.000000,0.000000,0.000000,0.000000,0.000000,0.000000,0.000000,0.000000,0.000000,0.000000,0.000000,0.000000,0.000000,0.000000,0.000000,0.000000,,,,,,,,,,,,,,,,,,,,,,,,,,,,,,,,,,,,,,,,,,,,,,,,,,,,,,,,,,,,,,,,,,,,,,,,,,,,,,,,,,,,,,,,,,,,,,,,,,,,,,,,,,,,,,,,,,,,,,,,,,,,,,,
1598855932.039960,16.000000,0.000000,4215.641113,4217.563965,4216.153809,4218.974121,4211.410156,4213.077148,4214.102539,4216.922852,4220.641113,4219.230957,4269.871582,4959.102539,4217.692383,4225.256348,0.000000,2.000000,,,,0.000000,0.000000,0.000000,0.000000,0.000000,0.000000,0.000000,0.000000,0.000000,0.000000,0.000000,0.000000,0.000000,0.000000,0.000000,0.000000,8.000000,0.000000,8206.000000,8092.000000,8202.000000,12226.000000,7670.000000,8581.000000,8141.000000,8112.000000,7649.000000,,,,,,,,,,,,,,,,,,,,,,,,,,,,,,,,,,,,,,,,,,,,,,,,,,,,,,,,,,,,,,,,,,,,,,,,,,,,,,,,,,,,,,,,,,,,,,,,,,,,,,,,,,,,,,,,,,,,
1598855932.047841,17.000000,0.000000,4215.769043,4215.512695,4216.153809,4216.282227,4212.436035,4213.846191,4211.410156,4216.922852,4217.051270,4221.794922,4268.717773,4956.153809,4217.563965,4222.820313,0.000000,2.000000,,,,0.000000,0.000000,0.000000,0.000000,0.000000,0.000000,0.000000,0.000000,0.000000,0.000000,0.000000,0.000000,0.000000,0.000000,0.000000,0.000000,,,,,,,,,,,,,,,,,,,,,,,,,,,,,,,,,,,,,,,,,,,,,,,,,,,,,,,,,,,,,,,,,,,,,,,,,,,,,,,,,,,,,,,,,,,,,,,,,,,,,,,,,,,,,,,,,,,,,,,,,,,,,,,
1598855932.055721,18.000000,0.000000,4215.000000,4215.897461,4215.897461,4216.282227,4214.102539,4216.282227,4210.641113,4216.922852,4214.743652,4221.153809,4267.692383,4954.615234,4216.538574,4222.051270,0.000000,2.000000,,,,0.000000,0.000000,0.000000,0.000000,0.000000,0.000000,0.000000,0.000000,0.000000,0.000000,0.000000,0.000000,0.000000,0.000000,0.000000,0.000000,9.000000,0.000000,8211.000000,8093.000000,8196.000000,12226.000000,7687.000000,8569.000000,8144.000000,8113.000000,7649.000000,,,,,,,,,,,,,,,,,,,,,,,,,,,,,,,,,,,,,,,,,,,,,,,,,,,,,,,,,,,,,,,,,,,,,,,,,,,,,,,,,,,,,,,,,,,,,,,,,,,,,,,,,,,,,,,,,,,,
1598855932.063602,19.000000,0.000000,4215.128418,4215.384766,4212.436035,4220.512695,4213.333496,4214.871582,4211.538574,4216.922852,4217.179688,4221.153809,4267.948730,4956.153809,4215.897461,4223.077148,0.000000,2.000000,,,,0.000000,0.000000,0.000000,0.000000,0.000000,0.000000,0.000000,0.000000,0.000000,0.000000,0.000000,0.000000,0.000000,0.000000,0.000000,0.000000,,,,,,,,,,,,,,,,,,,,,,,,,,,,,,,,,,,,,,,,,,,,,,,,,,,,,,,,,,0.006717,0.009305,0.006172,0.002394,0.007387,0.035416,0.031397,0.057664,0.022290,0.037790,0.040922,0.011309,0.021404,0.039181,0.030135,0.020547,0.009982,0.031448,0.017430,0.027342,0.017666,0.039040,0.018152,0.014004,0.031421,0.015686,0.017406,0.010206,0.019809,0.027983,0.012236,0.011325,0.013983,0.005312,0.015114,0.005906,0.002567,0.000869,0.000822,0.000579,0.027171,0.007000,0.023194,0.048208,0.034345,0.042487,0.028802,0.036984,0.025858,0.025962,0.007243,0.019639,0.016122,0.023104,0.019771,0.038340,0.019272,0.020588,0.031559,0.032168,0.035234,0.037619,0.022025,0.026664,0.032954,0.039636,0.035562,0.071367,0.032692,0.041820
1598855932.071382,20.000000,0.000000,4217.563965,4214.102539,4214.487305,4220.128418,4212.436035,4213.205078,4212.307617,4216.922852,4217.179688,4220.769043,4271.282227,4957.179688,4216.282227,4222.179688,0.000000,2.000000,,,,0.000000,0.000000,0.000000,0.000000,0.000000,0.000000,0.000000,0.000000,0.000000,0.000000,0.000000,0.000000,0.000000,0.000000,0.000000,0.000000,10.000000,0.000000,8209.000000,8093.000000,8204.000000,12218.000000,7662.000000,8582.000000,8145.000000,8116.000000,7649.000000,,,,,,,,,,,,,,,,,,,,,,,,,,,,,,,,,,,,,,,,,,,,,,,,,,,,,,,,,,,,,,,,,,,,,,,,,,,,,,,,,,,,,,,,,,,,,,,,,,,,,,,,,,,,,,,,,,,,
1598855932.079263,21.000000,0.000000,4217.563965,4216.794922,4216.153809,4214.230957,4212.307617,4215.897461,4211.538574,4216.922852,4213.589844,4220.897461,4271.410156,4952.436035,4218.974121,4221.282227,0.000000,2.000000,,,,0.000000,0.000000,0.000000,0.000000,0.000000,0.000000,0.000000,0.000000,0.000000,0.000000,0.000000,0.000000,0.000000,0.000000,0.000000,0.000000,,,,,,,,,,,,,,,,,,,,,,,,,,,,,,,,,,,,,,,,,,,,,,,,,,,,,,,,,,,,,,,,,,,,,,,,,,,,,,,,,,,,,,,,,,,,,,,,,,,,,,,,,,,,,,,,,,,,,,,,,,,,,,,
1598855932.087143,22.000000,0.000000,4217.563965,4218.974121,4214.102539,4215.256348,4212.820313,4215.256348,4212.820313,4216.922852,4213.717773,4222.179688,4267.692383,4951.410156,4215.897461,4221.153809,0.000000,2.000000,,,,0.000000,0.000000,0.000000,0.000000,0.000000,0.000000,0.000000,0.000000,0.000000,0.000000,0.000000,0.000000,0.000000,0.000000,0.000000,0.000000,11.000000,0.000000,8208.000000,8090.000000,8205.000000,12222.000000,7677.000000,8584.000000,8149.000000,8110.000000,7651.000000,,,,,,,,,,,,,,,,,,,,,,,,,,,,,,,,,,,,,,,,,,,,,,,,,,,,,,,,,,,,,,,,,,,,,,,,,,,,,,,,,,,,,,,,,,,,,,,,,,,,,,,,,,,,,,,,,,,,
1598855932.095023,23.000000,0.000000,4217.563965,4214.358887,4212.563965,4215.128418,4214.358887,4209.871582,4213.846191,4216.922852,4216.538574,4222.820313,4267.820313,4956.922852,4212.436035,4221.282227,0.000000,2.000000,,,,0.000000,0.000000,0.000000,0.000000,0.000000,0.000000,0.000000,0.000000,0.000000,0.000000,0.000000,0.000000,0.000000,0.000000,0.000000,0.000000,,,,,,,,,,,,,,,,,,,,,,,,,,,,,,,,,,,,,,,,,,,,,,,,,,,,,,,,,,,,,,,,,,,,,,,,,,,,,,,,,,,,,,,,,,,,,,,,,,,,,,,,,,,,,,,,,,,,,,,,,,,,,,,
1598855932.102804,24.000000,0.000000,4215.769043,4211.538574,4217.948730,4213.717773,4216.153809,4212.051270,4212.051270,4216.922852,4215.769043,4220.512695,4270.256348,4957.948730,4213.974121,4222.179688,0.000000,2.000000,,,,0.000000,0.000000,0.000000,0.000000,0.000000,0.000000,0.000000,0.000000,0.000000,0.000000,0.000000,0.000000,0.000000,0.000000,0.000000,0.000000,12.000000,0.000000,8209.000000,8092.000000,8209.000000,12226.000000,7661.000000,8567.000000,8144.000000,8115.000000,7647.000000,,,,,,,,,,,,,,,,,,,,,,,,,,,,,,,,,,,,,,,,,,,,,,,,,,,,,,,,,,,,,,,,,,,,,,,,,,,,,,,,,,,,,,,,,,,,,,,,,,,,,,,,,,,,,,,,,,,,
1598855932.110684,25.000000,0.000000,4216.538574,4212.820313,4219.358887,4214.743652,4213.333496,4215.256348,4209.743652,4216.922852,4216.794922,4219.871582,4271.282227,4954.615234,4218.974121,4223.077148,0.000000,2.000000,,,,0.000000,0.000000,0.000000,0.000000,0.000000,0.000000,0.000000,0.000000,0.000000,0.000000,0.000000,0.000000,0.000000,0.000000,0.000000,0.000000,,,,,,,,,,,,,,,,,,,,,,,,,,,,,,,,,,,,,,,,,,,,,,,,,,,,,,,,,,,,,,,,,,,,,,,,,,,,,,,,,,,,,,,,,,,,,,,,,,,,,,,,,,,,,,,,,,,,,,,,,,,,,,,
1598855932.118565,26.000000,0.000000,4218.846191,4212.179688,4214.871582,4218.461426,4210.256348,4212.820313,4211.153809,4216.794922,4216.282227,4219.743652,4270.769043,4956.794922,4217.948730,4222.948730,0.000000,2.000000,,,,0.000000,0.000000,0.000000,0.000000,0.000000,0.000000,0.000000,0.000000,0.000000,0.000000,0.000000,0.000000,0.000000,0.000000,0.000000,0.000000,13.000000,0.000000,8210.000000,8094.000000,8201.000000,12228.000000,7657.000000,8570.000000,8144.000000,8117.000000,7648.000000,,,,,,,,,,,,,,,,,,,,,,,,,,,,,,,,,,,,,,,,,,,,,,,,,,,,,,,,,,,,,,,,,,,,,,,,,,,,,,,,,,,,,,,,,,,,,,,,,,,,,,,,,,,,,,,,,,,,
1598855932.126446,27.000000,0.000000,4216.666504,4211.794922,4214.743652,4218.205078,4210.128418,4212.179688,4212.179688,4216.922852,4215.512695,4220.897461,4270.769043,4959.743652,4215.512695,4224.615234,0.000000,2.000000,,,,0.000000,0.000000,0.000000,0.000000,0.000000,0.000000,0.000000,0.000000,0.000000,0.000000,0.000000,0.000000,0.000000,0.000000,0.000000,0.000000,,,,,,,,,,,,,,,,,,,,,,,,,,,,,,,,,,,,,,,,,,,,,,,,,,,,,,,,,,,,,,,,,,,,,,,,,,,,,,,,,,,,,,,,,,,,,,,,,,,,,,,,,,,,,,,,,,,,,,,,,,,,,,,
1598855932.134327,28.000000,0.000000,4214.230957,4214.615234,4217.820313,4213.589844,4212.179688,4215.897461,4212.179688,4217.563965,4218.846191,4221.794922,4268.974121,4957.820313,4215.384766,4223.846191,0.000000,2.000000,,,,0.000000,0.000000,0.000000,0.000000,0.000000,0.000000,0.000000,0.000000,0.000000,0.000000,0.000000,0.000000,0.000000,0.000000,0.000000,0.000000,14.000000,0.000000,8207.000000,8098.000000,8204.000000,12227.000000,7668.000000,8578.000000,8145.000000,8111.000000,7647.000000,,,,,,,,,,,,,,,,,,,,,,,,,,,,,,,,,,,,,,,,,,,,,,,,,,,,,,,,,,,,,,,,,,,,,,,,,,,,,,,,,,,,,,,,,,,,,,,,,,,,,,,,,,,,,,,,,,,,
1598855932.142207,29.000000,0.000000,4216.538574,4215.512695,4215.897461,4211.922852,4211.282227,4213.974121,4211.922852,4217.948730,4219.102539,4220.769043,4269.743652,4957.051270,4217.563965,4222.307617,0.000000,2.000000,,,,0.000000,0.000000,0.000000,0.000000,0.000000,0.000000,0.000000,0.000000,0.000000,0.000000,0.000000,0.000000,0.000000,0.000000,0.000000,0.000000,,,,,,,,,,,,,,,,,,,,,,,,,,,,,,,,,,,,,,,,,,,,,,,,,,,,,,,,,,,,,,,,,,,,,,,,,,,,,,,,,,,,,,,,,,,,,,,,,,,,,,,,,,,,,,,,,,,,,,,,,,,,,,,
1598855932.150088,30.000000,0.000000,4217.179688,4214.743652,4215.897461,4218.205078,4211.666504,4213.461426,4211.025879,4217.948730,4216.538574,4220.128418,4271.666504,4956.666504,4217.307617,4223.589844,0.000000,2.000000,,,,0.000000,0.000000,0.000000,0.000000,0.000000,0.000000,0.000000,0.000000,0.000000,0.000000,0.000000,0.000000,0.000000,0.000000,0.000000,0.000000,15.000000,0.000000,8211.000000,8089.000000,8206.000000,12222.000000,7668.000000,8574.000000,8145.000000,8116.000000,7646.000000,,,,,,,,,,,,,,,,,,,,,,,,,,,,,,,,,,,,,,,,,,,,,,,,,,,,,,,,,,,,,,,,,,,,,,,,,,,,,,,,,,,,,,,,,,,,,,,,,,,,,,,,,,,,,,,,,,,,
1598855932.157969,31.000000,0.000000,4215.000000,4214.487305,4218.077148,4220.128418,4212.820313,4216.794922,4209.871582,4217.563965,4218.205078,4220.769043,4270.897461,4956.666504,4216.794922,4223.974121,0.000000,2.000000,,,,0.000000,0.000000,0.000000,0.000000,0.000000,0.000000,0.000000,0.000000,0.000000,0.000000,0.000000,0.000000,0.000000,0.000000,0.000000,0.000000,,,,,,,,,,,,,,,,,,,,,,,,,,,,,,,,,,,,,,,,,,,,,,,,,,,,,,,,,,,,,,,,,,,,,,,,,,,,,,,,,,,,,,,,,,,,,,,,,,,,,,,,,,,,,,,,,,,,,,,,,,,,,,,
1598855932.165849,32.000000,0.000000,4215.512695,4215.000000,4216.666504,4216.282227,4213.589844,4215.512695,4210.256348,4217.307617,4219.102539,4221.282227,4267.820313,4955.641113,4216.666504,4223.205078,0.000000,2.000000,,,,0.000000,0.000000,0.000000,0.000000,0.000000,0.000000,0.000000,0.000000,0.000000,0.000000,0.000000,0.000000,0.000000,0.000000,0.000000,0.000000,16.000000,0.000000,8206.000000,8091.000000,8204.000000,12231.000000,7681.000000,8575.000000,8143.000000,8111.000000,7650.000000,,,,,,,,,,,,,,,,,,,,,,,,,,,,,,,,,,,,,,,,,,,,,,,,,,,,,,,,,,,,,,,,,,,,,,,,,,,,,,,,,,,,,,,,,,,,,,,,,,,,,,,,,,,,,,,,,,,,
1598855932.173630,33.000000,0.000000,4216.794922,4214.743652,4215.512695,4215.769043,4212.563965,4213.205078,4209.871582,4217.563965,4215.641113,4220.641113,4266.666504,4954.743652,4218.846191,4224.487305,0.000000,2.000000,,,,0.000000,0.000000,0.000000,0.000000,0.000000,0.000000,0.000000,0.000000,0.000000,0.000000,0.000000,0.000000,0.000000,0.000000,0.000000,0.000000,,,,,,,,,,,,,,,,,,,,,,,,,,,,,,,,,,,,,,,,,,,,,,,,,,,,,,,,,,,,,,,,,,,,,,,,,,,,,,,,,,,,,,,,,,,,,,,,,,,,,,,,,,,,,,,,,,,,,,,,,,,,,,,
1598855932.181511,34.000000,0.000000,4216.922852,4213.974121,4215.641113,4216.666504,4210.128418,4214.102539,4209.615234,4217.692383,4216.025879,4220.256348,4268.205078,4954.871582,4221.410156,4222.307617,0.000000,2.000000,,,,0.000000,0.000000,0.000000,0.000000,0.000000,0.000000,0.000000,0.000000,0.000000,0.000000,0.000000,0.000000,0.000000,0.000000,0.000000,0.000000,17.000000,0.000000,8207.000000,8087.000000,8209.000000,12222.000000,7667.000000,8572.000000,8145.000000,8112.000000,7650.000000,,,,,,,,,,,,,,,,,,,,,,,,,,,,,,,,,,,,,,,,,,,,,,,,,,,,,,,,,,,,,,,,,,,,,,,,,,,,,,,,,,,,,,,,,,,,,,,,,,,,,,,,,,,,,,,,,,,,
1598855932.189391,35.000000,0.000000,4217.179688,4214.487305,4216.922852,4216.922852,4210.384766,4211.666504,4209.743652,4217.563965,4217.820313,4221.538574,4269.358887,4957.948730,4220.256348,4222.820313,0.000000,2.000000,,,,0.000000,0.000000,0.000000,0.000000,0.000000,0.000000,0.000000,0.000000,0.000000,0.000000,0.000000,0.000000,0.000000,0.000000,0.000000,0.000000,,,,,,,,,,,,,,,,,,,,,,,,,,,,,,,,,,,,,,,,,,,,,,,,,,,,,,,,,,0.006367,0.011425,0.005660,0.002507,0.007923,0.037781,0.035069,0.051706,0.021543,0.036807,0.041034,0.015643,0.018771,0.038858,0.031854,0.021760,0.011370,0.032031,0.015667,0.027025,0.017282,0.037977,0.021422,0.015319,0.031577,0.013203,0.017126,0.011993,0.019849,0.032212,0.012587,0.011520,0.014370,0.005516,0.016285,0.004139,0.001325,0.000708,0.000583,0.000382,0.029083,0.006786,0.021268,0.045766,0.034516,0.031774,0.021409,0.033977,0.020780,0.024152,0.005934,0.019054,0.018002,0.022667,0.018955,0.051621,0.024901,0.024954,0.030822,0.028198,0.028173,0.035504,0.024156,0.029443,0.031016,0.039031,0.039447,0.070869,0.035535,0.041899
1598855932.197272,36.000000,0.000000,4217.051270,4216.153809,4217.179688,4216.794922,4212.563965,4210.384766,4210.384766,4217.563965,4219.487305,4221.666504,4269.615234,4956.153809,4216.922852,4224.358887,0.000000,2.000000,,,,0.000000,0.000000,0.000000,0.000000,0.000000,0.000000,0.000000,0.000000,0.000000,0.000000,0.000000,0.000000,0.000000,0.000000,0.000000,0.000000,18.000000,0.000000,8208.000000,8092.000000,8200.000000,12228.000000,7678.000000,8572.000000,8142.000000,8117.000000,7652.000000,,,,,,,,,,,,,,,,,,,,,,,,,,,,,,,,,,,,,,,,,,,,,,,,,,,,,,,,,,,,,,,,,,,,,,,,,,,,,,,,,,,,,,,,,,,,,,,,,,,,,,,,,,,,,,,,,,,,
1598855932.205153,37.000000,0.000000,4216.666504,4214.871582,4217.307617,4216.538574,4212.563965,4212.179688,4211.666504,4217.692383,4220.000000,4220.000000,4270.128418,4955.128418,4217.948730,4222.563965,0.000000,2.000000,,,,0.000000,0.000000,0.000000,0.000000,0.000000,0.000000,0.000000,0.000000,0.000000,0.000000,0.000000,0.000000,0.000000,0.000000,0.000000,0.000000,,,,,,,,,,,,,,,,,,,,,,,,,,,,,,,,,,,,,,,,,,,,,,,,,,,,,,,,,,,,,,,,,,,,,,,,,,,,,,,,,,,,,,,,,,,,,,,,,,,,,,,,,,,,,,,,,,,,,,,,,,,,,,,
1598855932.213033,38.000000,0.000000,4217.307617,4212.051270,4215.000000,4216.666504,4208.717773,4211.666504,4212.820313,4217.563965,4216.153809,4221.025879,4270.256348,4954.230957,4222.563965,4219.743652,0.000000,2.000000,,,,0.000000,0.000000,0.000000,0.000000,0.000000,0.000000,0.000000,0.000000,0.000000,0.000000,0.000000,0.000000,0.000000,0.000000,0.000000,0.000000,19.000000,0.000000,8210.000000,8095.000000,8206.000000,12221.000000,7670.000000,8587.000000,8142.000000,8113.000000,7649.000000,,,,,,,,,,,,,,,,,,,,,,,,,,,,,,,,,,,,,,,,,,,,,,,,,,,,,,,,,,,,,,,,,,,,,,,,,,,,,,,,,,,,,,,,,,,,,,,,,,,,,,,,,,,,,,,,,,,,
1598855932.220914,39.000000,0.000000,4218.205078,4211.538574,4215.512695,4218.077148,4210.769043,4211.794922,4211.538574,4217.563965,4212.820313,4220.897461,4271.666504,4955.256348,4221.025879,4221.025879,0.000000,2.000000,,,,0.000000,0.000000,0.000000,0.000000,0.000000,0.000000,0.000000,0.000000,0.000000,0.000000,0.000000,0.000000,0.000000,0.000000,0.000000,0.000000,,,,,,,,,,,,,,,,,,,,,,,,,,,,,,,,,,,,,,,,,,,,,,,,,,,,,,,,,,,,,,,,,,,,,,,,,,,,,,,,,,,,,,,,,,,,,,,,,,,,,,,,,,,,,,,,,,,,,,,,,,,,,,,
1598855932.228795,40.000000,0.000000,4217.179688,4215.897461,4214.871582,4216.538574,4217.051270,4214.102539,4209.230957,4217.563965,4217.563965,4220.769043,4272.436035,4956.410156,4218.205078,4223.846191,0.000000,2.000000,,,,0.000000,0.000000,0.000000,0.000000,0.000000,0.000000,0.000000,0.000000,0.000000,0.000000,0.000000,0.000000,0.000000,0.000000,0.000000,0.000000,20.000000,0.000000,8212.000000,8090.000000,8208.000000,12222.000000,7644.000000,8569.000000,8142.000000,8116.000000,7648.000000,,,,,,,,,,,,,,,,,,,,,,,,,,,,,,,,,,,,,,,,,,,,,,,,,,,,,,,,,,,,,,,,,,,,,,,,,,,,,,,,,,,,,,,,,,,,,,,,,,,,,,,,,,,,,,,,,,,,
1598855932.236676,41.000000,0.000000,4215.384766,4218.461426,4213.077148,4216.282227,4214.871582,4214.615234,4210.641113,4217.563965,4222.051270,4221.922852,4271.153809,4954.871582,4216.025879,4223.205078,0.000000,2.000000,,,,0.000000,0.000000,0.000000,0.000000,0.000000,0.000000,0.000000,0.000000,0.000000,0.000000,0.000000,0.000000,0.000000,0.000000,0.000000,0.000000,,,,,,,,,,,,,,,,,,,,,,,,,,,,,,,,,,,,,,,,,,,,,,,,,,,,,,,,,,,,,,,,,,,,,,,,,,,,,,,,,,,,,,,,,,,,,,,,,,,,,,,,,,,,,,,,,,,,,,,,,,,,,,,
1598855932.244456,42.000000,0.000000,4215.256348,4214.743652,4213.717773,4216.025879,4209.487305,4214.743652,4212.563965,4217.563965,4220.000000,4222.563965,4270.128418,4952.820313,4215.769043,4221.282227,0.000000,2.000000,,,,0.000000,0.000000,0.000000,0.000000,0.000000,0.000000,0.000000,0.000000,0.000000,0.000000,0.000000,0.000000,0.000000,0.000000,0.000000,0.000000,21.000000,0.000000,8206.000000,8096.000000,8202.000000,12226.000000,7674.000000,8571.000000,8144.000000,8112.000000,7647.000000,,,,,,,,,,,,,,,,,,,,,,,,,,,,,,,,,,,,,,,,,,,,,,,,,,,,,,,,,,,,,,,,,,,,,,,,,,,,,,,,,,,,,,,,,,,,,,,,,,,,,,,,,,,,,,,,,,,,
1598855932.252337,43.000000,0.000000,4216.538574,4214.743652,4219.487305,4215.512695,4211.282227,4215.769043,4212.436035,4217.563965,4217.563965,4221.153809,4270.512695,4955.641113,4214.102539,4221.794922,0.000000,2.000000,,,,0.000000,0.000000,0.000000,0.000000,0.000000,0.000000,0.000000,0.000000,0.000000,0.000000,0.000000,0.000000,0.000000,0.000000,0.000000,0.000000,,,,,,,,,,,,,,,,,,,,,,,,,,,,,,,,,,,,,,,,,,,,,,,,,,,,,,,,,,,,,,,,,,,,,,,,,,,,,,,,,,,,,,,,,,,,,,,,,,,,,,,,,,,,,,,,,,,,,,,,,,,,,,,
1598855932.260218,44.000000,0.000000,4216.666504,4215.512695,4219.230957,4216.153809,4212.820313,4211.282227,4211.153809,4217.563965,4218.589844,4222.179688,4271.666504,4958.333496,4216.794922,4223.717773,0.000000,2.000000,,,,0.000000,0.000000,0.000000,0.000000,0.000000,0.000000,0.000000,0.000000,0.000000,0.000000,0.000000,0.000000,0.000000,0.000000,0.000000,0.000000,22.000000,0.000000,8209.000000,8089.000000,8199.000000,12224.000000,7678.000000,8591.000000,8145.000000,8090.000000,7646.000000,,,,,,,,,,,,,,,,,,,,,,,,,,,,,,,,,,,,,,,,,,,,,,,,,,,,,,,,,,,,,,,,,,,,,,,,,,,,,,,,,,,,,,,,,,,,,,,,,,,,,,,,,,,,,,,,,,,,
1598855932.268098,45.000000,0.000000,4215.769043,4210.384766,4214.615234,4218.333496,4211.025879,4211.153809,4211.025879,4217.563965,4219.230957,4222.179688,4271.025879,4955.512695,4216.153809,4222.436035,0.000000,2.000000,,,,0.000000,0.000000,0.000000,0.000000,0.000000,0.000000,0.000000,0.000000,0.000000,0.000000,0.000000,0.000000,0.000000,0.000000,0.000000,0.000000,,,,,,,,,,,,,,,,,,,,,,,,,,,,,,,,,,,,,,,,,,,,,,,,,,,,,,,,,,,,,,,,,,,,,,,,,,,,,,,,,,,,,,,,,,,,,,,,,,,,,,,,,,,,,,,,,,,,,,,,,,,,,,,
1598855932.275979,46.000000,0.000000,4216.666504,4211.666504,4213.717773,4216.153809,4211.282227,4214.487305,4209.871582,4217.563965,4217.436035,4220.000000,4272.436035,4955.641113,4213.717773,4222.307617,0.000000,2.000000,,,,0.000000,0.000000,0.000000,0.000000,0.000000,0.000000,0.000000,0.000000,0.000000,0.000000,0.000000,0.000000,0.000000,0.000000,0.000000,0.000000,23.000000,0.000000,8204.000000,8093.000000,8200.000000,12225.000000,7645.000000,8574.000000,8143.000000,8115.000000,7648.000000,,,,,,,,,,,,,,,,,,,,,,,,,,,,,,,,,,,,,,,,,,,,,,,,,,,,,,,,,,,,,,,,,,,,,,,,,,,,,,,,,,,,,,,,,,,,,,,,,,,,,,,,,,,,,,,,,,,,
1598855932.283860,47.000000,0.000000,4218.205078,4216.794922,4219.230957,4215.769043,4213.717773,4214.230957,4209.871582,4217.563965,4216.282227,4219.230957,4273.077148,4956.153809,4215.128418,4224.615234,0.000000,2.000000,,,,0.000000,0.000000,0.000000,0.000000,0.000000,0.000000,0.000000,0.000000,0.000000,0.000000,0.000000,0.000000,0.000000,0.000000,0.000000,0.000000,,,,,,,,,,,,,,,,,,,,,,,,,,,,,,,,,,,,,,,,,,,,,,,,,,,,,,,,,,,,,,,,,,,,,,,,,,,,,,,,,,,,,,,,,,,,,,,,,,,,,,,,,,,,,,,,,,,,,,,,,,,,,,,
1598855932.291740,48.000000,0.000000,4217.563965,4215.897461,4221.794922,4218.077148,4213.077148,4214.102539,4210.897461,4217.563965,4217.820313,4220.512695,4270.769043,4952.179688,4217.948730,4225.384766,0.000000,2.000000,,,,0.000000,0.000000,0.000000,0.000000,0.000000,0.000000,0.000000,0.000000,0.000000,0.000000,0.000000,0.000000,0.000000,0.000000,0.000000,0.000000,24.000000,0.000000,8206.000000,8092.000000,8203.000000,12235.000000,7686.000000,8580.000000,8142.000000,8116.000000,7647.000000,,,,,,,,,,,,,,,,,,,,,,,,,,,,,,,,,,,,,,,,,,,,,,,,,,,,,,,,,,,,,,,,,,,,,,,,,,,,,,,,,,,,,,,,,,,,,,,,,,,,,,,,,,,,,,,,,,,,
1598855932.299621,49.000000,0.000000,4215.512695,4216.666504,4218.333496,4217.436035,4212.179688,4215.384766,4211.922852,4217.563965,4217.179688,4222.051270,4268.589844,4953.461426,4216.794922,4223.846191,0.000000,2.000000,,,,0.000000,0.000000,0.000000,0.000000,0.000000,0.000000,0.000000,0.000000,0.000000,0.000000,0.000000,0.000000,0.000000,0.000000,0.000000,0.000000,,,,,,,,,,,,,,,,,,,,,,,,,,,,,,,,,,,,,,,,,,,,,,,,,,,,,,,,,,,,,,,,,,,,,,,,,,,,,,,,,,,,,,,,,,,,,,,,,,,,,,,,,,,,,,,,,,,,,,,,,,,,,,,
1598855932.307502,50.000000,0.000000,4215.384766,4217.051270,4214.230957,4216.794922,4212.179688,4214.102539,4211.410156,4217.563965,4215.769043,4220.769043,4269.743652,4959.487305,4215.897461,4222.563965,0.000000,2.000000,,,,0.000000,0.000000,0.000000,0.000000,0.000000,0.000000,0.000000,0.000000,0.000000,0.000000,0.000000,0.000000,0.000000,0.000000,0.000000,0.000000,25.000000,0.000000,8205.000000,8090.000000,8203.000000,12227.000000,7682.000000,8589.000000,8143.000000,8112.000000,7650.000000,,,,,,,,,,,,,,,,,,,,,,,,,,,,,,,,,,,,,,,,,,,,,,,,,,,,,,,,,,,,,,,,,,,,,,,,,,,,,,,,,,,,,,,,,,,,,,,,,,,,,,,,,,,,,,,,,,,,
1598855932.315383,51.000000,0.000000,4216.153809,4214.358887,4212.692383,4218.974121,4212.948730,4212.436035,4211.282227,4217.563965,4216.410156,4219.487305,4270.384766,4957.051270,4217.692383,4221.922852,0.000000,2.000000,,,,0.000000,0.000000,0.000000,0.000000,0.000000,0.000000,0.000000,0.000000,0.000000,0.000000,0.000000,0.000000,0.000000,0.000000,0.000000,0.000000,,,,,,,,,,,,,,,,,,,,,,,,,,,,,,,,,,,,,,,,,,,,,,,,,,,,,,,,,,0.006519,0.012778,0.005298,0.002912,0.008906,0.039645,0.041637,0.046092,0.021270,0.036890,0.042067,0.025753,0.017281,0.037550,0.032703,0.022052,0.011817,0.030781,0.014748,0.026713,0.016366,0.035018,0.024255,0.016681,0.030648,0.011309,0.017865,0.014599,0.018862,0.035879,0.012242,0.011873,0.014586,0.006032,0.018079,0.002911,0.000634,0.000585,0.000428,0.000264,0.031705,0.009076,0.020820,0.041934,0.034000,0.023258,0.014859,0.032231,0.017280,0.022292,0.004821,0.018549,0.019478,0.021322,0.018898,0.065435,0.034865,0.027790,0.028874,0.026115,0.024238,0.036582,0.027293,0.034334,0.028460,0.038233,0.041792,0.067973,0.037132,0.040681
1598855932.323163,52.000000,0.000000,4215.769043,4215.641113,4214.871582,4219.743652,4211.922852,4213.589844,4212.179688,4217.563965,4216.794922,4220.256348,4270.512695,4953.077148,4217.563965,4224.358887,0.000000,2.000000,,,,0.000000,0.000000,0.000000,0.000000,0.000000,0.000000,0.000000,0.000000,0.000000,0.000000,0.000000,0.000000,0.000000,0.000000,0.000000,0.000000,26.000000,0.000000,8208.000000,8091.000000,8204.000000,12230.000000,7694.000000,8585.000000,8142.000000,8116.000000,7647.000000,,,,,,,,,,,,,,,,,,,,,,,,,,,,,,,,,,,,,,,,,,,,,,,,,,,,,,,,,,,,,,,,,,,,,,,,,,,,,,,,,,,,,,,,,,,,,,,,,,,,,,,,,,,,,,,,,,,,
1598855932.331044,53.000000,0.000000,4215.512695,4216.794922,4215.128418,4216.794922,4210.384766,4213.846191,4212.563965,4217.563965,4218.205078,4222.692383,4269.871582,4954.743652,4215.384766,4222.692383,0.000000,2.000000,,,,0.000000,0.000000,0.000000,0.000000,0.000000,0.000000,0.000000,0.000000,0.000000,0.000000,0.000000,0.000000,0.000000,0.000000,0.000000,0.000000,,,,,,,,,,,,,,,,,,,,,,,,,,,,,,,,,,,,,,,,,,,,,,,,,,,,,,,,,,,,,,,,,,,,,,,,,,,,,,,,,,,,,,,,,,,,,,,,,,,,,,,,,,,,,,,,,,,,,,,,,,,,,,,
1598855932.338925,54.000000,0.000000,4216.794922,4213.974121,4216.153809,4216.538574,4211.410156,4213.461426,4211.666504,4217.563965,4218.589844,4220.641113,4269.615234,4957.692383,4215.128418,4220.128418,0.000000,2.000000,,,,0.000000,0.000000,0.000000,0.000000,0.000000,0.000000,0.000000,0.000000,0.000000,0.000000,0.000000,0.000000,0.000000,0.000000,0.000000,0.000000,27.000000,0.000000,8207.000000,8088.000000,8207.000000,12218.000000,7698.000000,8591.000000,8144.000000,8096.000000,7647.000000,,,,,,,,,,,,,,,,,,,,,,,,,,,,,,,,,,,,,,,,,,,,,,,,,,,,,,,,,,,,,,,,,,,,,,,,,,,,,,,,,,,,,,,,,,,,,,,,,,,,,,,,,,,,,,,,,,,,
1598855932.346805,55.000000,0.000000,4216.922852,4215.512695,4214.871582,4216.922852,4212.051270,4214.615234,4211.410156,4217.563965,4215.769043,4216.025879,4270.769043,4954.743652,4215.769043,4223.846191,0.000000,2.000000,,,,0.000000,0.000000,0.000000,0.000000,0.000000,0.000000,0.000000,0.000000,0.000000,0.000000,0.000000,0.000000,0.000000,0.000000,0.000000,0.000000,,,,,,,,,,,,,,,,,,,,,,,,,,,,,,,,,,,,,,,,,,,,,,,,,,,,,,,,,,,,,,,,,,,,,,,,,,,,,,,,,,,,,,,,,,,,,,,,,,,,,,,,,,,,,,,,,,,,,,,,,,,,,,,
1598855932.354686,56.000000,0.000000,4216.282227,4217.307617,4215.897461,4216.794922,4213.077148,4216.794922,4211.794922,4217.563965,4216.922852,4217.307617,4270.000000,4955.384766,4215.384766,4226.922852,0.000000,2.000000,,,,0.000000,0.000000,0.000000,0.000000,0.000000,0.000000,0.000000,0.000000,0.000000,0.000000,0.000000,0.000000,0.000000,0.000000,0.000000,0.000000,28.000000,0.000000,8212.000000,8090.000000,8208.000000,12221.000000,7694.000000,8565.000000,8146.000000,8111.000000,7646.000000,,,,,,,,,,,,,,,,,,,,,,,,,,,,,,,,,,,,,,,,,,,,,,,,,,,,,,,,,,,,,,,,,,,,,,,,,,,,,,,,,,,,,,,,,,,,,,,,,,,,,,,,,,,,,,,,,,,,
1598855932.362567,57.000000,0.000000,4217.051270,4215.384766,4218.205078,4214.743652,4212.948730,4216.025879,4210.769043,4217.563965,4219.487305,4221.153809,4268.205078,4957.051270,4217.820313,4224.487305,0.000000,2.000000,,,,0.000000,0.000000,0.000000,0.000000,0.000000,0.000000,0.000000,0.000000,0.000000,0.000000,0.000000,0.000000,0.000000,0.000000,0.000000,0.000000,,,,,,,,,,,,,,,,,,,,,,,,,,,,,,,,,,,,,,,,,,,,,,,,,,,,,,,,,,,,,,,,,,,,,,,,,,,,,,,,,,,,,,,,,,,,,,,,,,,,,,,,,,,,,,,,,,,,,,,,,,,,,,,
1598855932.370447,58.000000,0.000000,4217.307617,4216.025879,4219.358887,4215.000000,4211.282227,4214.358887,4210.641113,4217.563965,4216.922852,4220.256348,4268.846191,4956.666504,4217.948730,4221.922852,0.000000,2.000000,,,,0.000000,0.000000,0.000000,0.000000,0.000000,0.000000,0.000000,0.000000,0.000000,0.000000,0.000000,0.000000,0.000000,0.000000,0.000000,0.000000,29.000000,0.000000,8211.000000,8096.000000,8202.000000,12222.000000,7655.000000,8568.000000,8143.000000,8114.000000,7648.000000,,,,,,,,,,,,,,,,,,,,,,,,,,,,,,,,,,,,,,,,,,,,,,,,,,,,,,,,,,,,,,,,,,,,,,,,,,,,,,,,,,,,,,,,,,,,,,,,,,,,,,,,,,,,,,,,,,,,
1598855932.378328,59.000000,0.000000,4216.153809,4215.256348,4216.410156,4216.538574,4211.666504,4214.358887,4211.794922,4217.563965,4216.153809,4220.769043,4271.025879,4955.641113,4215.897461,4221.282227,0.000000,2.000000,,,,0.000000,0.000000,0.000000,0.000000,0.000000,0.000000,0.000000,0.000000,0.000000,0.000000,0.000000,0.000000,0.000000,0.000000,0.000000,0.000000,,,,,,,,,,,,,,,,,,,,,,,,,,,,,,,,,,,,,,,,,,,,,,,,,,,,,,,,,,,,,,,,,,,,,,,,,,,,,,,,,,,,,,,,,,,,,,,,,,,,,,,,,,,,,,,,,,,,,,,,,,,,,,,
1598855932.386209,60.000000,0.000000,4215.897461,4212.051270,4217.307617,4217.307617,4214.102539,4215.769043,4212.051270,4217.563965,4216.666504,4222.820313,4269.230957,4955.000000,4214.615234,4221.922852,0.000000,2.000000,,,,0.000000,0.000000,0.000000,0.000000,0.000000,0.000000,0.000000,0.000000,0.000000,0.000000,0.000000,0.000000,0.000000,0.000000,0.000000,0.000000,30.000000,0.000000,8203.000000,8090.000000,8193.000000,12216.000000,7668.000000,8590.000000,8141.000000,8115.000000,7647.000000,,,,,,,,,,,,,,,,,,,,,,,,,,,,,,,,,,,,,,,,,,,,,,,,,,,,,,,,,,,,,,,,,,,,,,,,,,,,,,,,,,,,,,,,,,,,,,,,,,,,,,,,,,,,,,,,,,,,
1598855932.393990,61.000000,0.000000,4215.897461,4213.589844,4217.436035,4215.256348,4213.589844,4215.384766,4211.538574,4217.563965,4215.512695,4222.948730,4268.077148,4954.871582,4218.077148,4223.333496,0.000000,2.000000,,,,0.000000,0.000000,0.000000,0.000000,0.000000,0.000000,0.000000,0.000000,0.000000,0.000000,0.000000,0.000000,0.000000,0.000000,0.000000,0.000000,,,,,,,,,,,,,,,,,,,,,,,,,,,,,,,,,,,,,,,,,,,,,,,,,,,,,,,,,,,,,,,,,,,,,,,,,,,,,,,,,,,,,,,,,,,,,,,,,,,,,,,,,,,,,,,,,,,,,,,,,,,,,,,
1598855932.401870,62.000000,0.000000,4216.153809,4216.282227,4215.000000,4217.307617,4212.179688,4213.333496,4211.666504,4217.563965,4215.897461,4222.563965,4269.230957,4955.512695,4218.974121,4223.589844,0.000000,2.000000,,,,0.000000,0.000000,0.000000,0.000000,0.000000,0.000000,0.000000,0.000000,0.000000,0.000000,0.000000,0.000000,0.000000,0.000000,0.000000,0.000000,31.000000,0.000000,8207.000000,8097.000000,8201.000000,12231.000000,7675.000000,8584.000000,8140.000000,8113.000000,7651.000000,,,,,,,,,,,,,,,,,,,,,,,,,,,,,,,,,,,,,,,,,,,,,,,,,,,,,,,,,,,,,,,,,,,,,,,,,,,,,,,,,,,,,,,,,,,,,,,,,,,,,,,,,,,,,,,,,,,,
1598855932.409751,63.000000,0.000000,4216.666504,4214.871582,4213.974121,4216.538574,4212.051270,4212.563965,4210.897461,4217.563965,4217.820313,4222.051270,4269.871582,4956.410156,4218.974121,4223.974121,0.000000,2.000000,,,,0.000000,0.000000,0.000000,0.000000,0.000000,0.000000,0.000000,0.000000,0.000000,0.000000,0.000000,0.000000,0.000000,0.000000,0.000000,0.000000,,,,,,,,,,,,,,,,,,,,,,,,,,,,,,,,,,,,,,,,,,,,,,,,,,,,,,,,,,,,,,,,,,,,,,,,,,,,,,,,,,,,,,,,,,,,,,,,,,,,,,,,,,,,,,,,,,,,,,,,,,,,,,,
1598855932.417632,64.000000,0.000000,4216.794922,4215.000000,4216.282227,4214.743652,4211.922852,4214.358887,4211.153809,4217.563965,4218.717773,4220.512695,4267.948730,4956.538574,4216.538574,4221.794922,0.000000,2.000000,,,,0.000000,0.000000,0.000000,0.000000,0.000000,0.000000,0.000000,0.000000,0.000000,0.000000,0.000000,0.000000,0.000000,0.000000,0.000000,0.000000,32.000000,0.000000,8207.000000,8093.000000,8197.000000,12224.000000,7685.000000,8587.000000,8142.000000,8113.000000,7647.000000,,,,,,,,,,,,,,,,,,,,,,,,,,,,,,,,,,,,,,,,,,,,,,,,,,,,,,,,,,,,,,,,,,,,,,,,,,,,,,,,,,,,,,,,,,,,,,,,,,,,,,,,,,,,,,,,,,,,
1598855932.425512,65.000000,0.000000,4215.256348,4218.589844,4215.512695,4217.436035,4210.641113,4210.512695,4211.153809,4217.563965,4220.000000,4223.077148,4268.461426,4956.153809,4217.307617,4217.563965,0.000000,2.000000,,,,0.000000,0.000000,0.000000,0.000000,0.000000,0.000000,0.000000,0.000000,0.000000,0.000000,0.000000,0.000000,0.000000,0.000000,0.000000,0.000000,,,,,,,,,,,,,,,,,,,,,,,,,,,,,,,,,,,,,,,,,,,,,,,,,,,,,,,,,,,,,,,,,,,,,,,,,,,,,,,,,,,,,,,,,,,,,,,,,,,,,,,,,,,,,,,,,,,,,,,,,,,,,,,
1598855932.433393,66.000000,0.000000,4216.538574,4218.974121,4213.077148,4219.358887,4211.282227,4210.641113,4211.922852,4217.563965,4219.487305,4219.358887,4269.871582,4953.717773,4219.102539,4220.256348,0.000000,2.000000,,,,0.000000,0.000000,0.000000,0.000000,0.000000,0.000000,0.000000,0.000000,0.000000,0.000000,0.000000,0.000000,0.000000,0.000000,0.000000,0.000000,33.000000,0.000000,8206.000000,8101.000000,8200.000000,12230.000000,7684.000000,8583.000000,8143.000000,8115.000000,7649.000000,,,,,,,,,,,,,,,,,,,,,,,,,,,,,,,,,,,,,,,,,,,,,,,,,,,,,,,,,,,,,,,,,,,,,,,,,,,,,,,,,,,,,,,,,,,,,,,,,,,,,,,,,,,,,,,,,,,,
1598855932.441274,67.000000,0.000000,4218.589844,4214.487305,4214.743652,4215.897461,4212.948730,4215.641113,4212.051270,4217.692383,4218.333496,4212.948730,4269.743652,4954.358887,4218.846191,4227.436035,0.000000,2.000000,,,,0.000000,0.000000,0.000000,0.000000,0.000000,0.000000,0.000000,0.000000,0.000000,0.000000,0.000000,0.000000,0.000000,0.000000,0.000000,0.000000,,,,,,,,,,,,,,,,,,,,,,,,,,,,,,,,,,,,,,,,,,,,,,,,,,,,,,,,,,0.006953,0.013197,0.005282,0.003485,0.010146,0.040756,0.049157,0.040780,0.021041,0.037902,0.043301,0.039780,0.016281,0.035537,0.032685,0.021168,0.011408,0.027544,0.014730,0.026810,0.015824,0.031233,0.025756,0.018070,0.028995,0.010410,0.019753,0.017819,0.017610,0.038709,0.011408,0.012445,0.014095,0.006903,0.020044,0.002095,0.000331,0.000491,0.000335,0.000198,0.033584,0.012952,0.021350,0.037209,0.033534,0.018600,0.010130,0.030812,0.015644,0.020627,0.004395,0.017740,0.020259,0.019252,0.019745,0.075564,0.047037,0.028787,0.025958,0.026793,0.024767,0.039519,0.030688,0.039944,0.026395,0.037584,0.041408,0.062564,0.036380,0.038329
1598855932.449154,68.000000,0.000000,4217.307617,4215.128418,4217.436035,4215.128418,4213.974121,4216.153809,4210.000000,4217.692383,4219.871582,4217.179688,4269.615234,4955.512695,4217.948730,4226.282227,0.000000,2.000000,,,,0.000000,0.000000,0.000000,0.000000,0.000000,0.000000,0.000000,0.000000,0.000000,0.000000,0.000000,0.000000,0.000000,0.000000,0.000000,0.000000,34.000000,0.000000,8207.000000,8090.000000,8203.000000,12230.000000,7674.000000,8574.000000,8143.000000,8094.000000,7649.000000,,,,,,,,,,,,,,,,,,,,,,,,,,,,,,,,,,,,,,,,,,,,,,,,,,,,,,,,,,,,,,,,,,,,,,,,,,,,,,,,,,,,,,,,,,,,,,,,,,,,,,,,,,,,,,,,,,,,
1598855932.457035,69.000000,0.000000,4214.871582,4216.922852,4215.641113,4215.897461,4212.563965,4214.358887,4208.974121,4217.692383,4220.128418,4222.820313,4269.615234,4953.333496,4218.589844,4224.230957,0.000000,2.000000,,,,0.000000,0.000000,0.000000,0.000000,0.000000,0.000000,0.000000,0.000000,0.000000,0.000000,0.000000,0.000000,0.000000,0.000000,0.000000,0.000000,,,,,,,,,,,,,,,,,,,,,,,,,,,,,,,,,,,,,,,,,,,,,,,,,,,,,,,,,,,,,,,,,,,,,,,,,,,,,,,,,,,,,,,,,,,,,,,,,,,,,,,,,,,,,,,,,,,,,,,,,,,,,,,
1598855932.464816,70.000000,0.000000,4215.641113,4212.820313,4212.051270,4213.974121,4212.563965,4215.769043,4212.692383,4217.692383,4220.769043,4221.282227,4268.077148,4952.307617,4216.153809,4223.846191,0.000000,2.000000,,,,0.000000,0.000000,0.000000,0.000000,0.000000,0.000000,0.000000,0.000000,0.000000,0.000000,0.000000,0.000000,0.000000,0.000000,0.000000,0.000000,35.000000,0.000000,8210.000000,8088.000000,8201.000000,12229.000000,7649.000000,8568.000000,8139.000000,8114.000000,7646.000000,,,,,,,,,,,,,,,,,,,,,,,,,,,,,,,,,,,,,,,,,,,,,,,,,,,,,,,,,,,,,,,,,,,,,,,,,,,,,,,,,,,,,,,,,,,,,,,,,,,,,,,,,,,,,,,,,,,,
1598855932.472697,71.000000,0.000000,4216.794922,4210.641113,4213.717773,4217.436035,4213.077148,4214.615234,4212.820313,4217.820313,4219.358887,4221.153809,4269.743652,4957.820313,4213.205078,4223.205078,0.000000,2.000000,,,,0.000000,0.000000,0.000000,0.000000,0.000000,0.000000,0.000000,0.000000,0.000000,0.000000,0.000000,0.000000,0.000000,0.000000,0.000000,0.000000,,,,,,,,,,,,,,,,,,,,,,,,,,,,,,,,,,,,,,,,,,,,,,,,,,,,,,,,,,,,,,,,,,,,,,,,,,,,,,,,,,,,,,,,,,,,,,,,,,,,,,,,,,,,,,,,,,,,,,,,,,,,,,,
1598855932.480577,72.000000,0.000000,4215.384766,4213.205078,4216.538574,4221.282227,4213.974121,4212.948730,4210.769043,4217.820313,4218.205078,4223.333496,4270.256348,4958.077148,4215.000000,4222.948730,0.000000,2.000000,,,,0.000000,0.000000,0.000000,0.000000,0.000000,0.000000,0.000000,0.000000,0.000000,0.000000,0.000000,0.000000,0.000000,0.000000,0.000000,0.000000,36.000000,0.000000,8209.000000,8094.000000,8202.000000,12234.000000,7671.000000,8568.000000,8144.000000,8109.000000,7648.000000,,,,,,,,,,,,,,,,,,,,,,,,,,,,,,,,,,,,,,,,,,,,,,,,,,,,,,,,,,,,,,,,,,,,,,,,,,,,,,,,,,,,,,,,,,,,,,,,,,,,,,,,,,,,,,,,,,,,
1598855932.488458,73.000000,0.000000,4215.769043,4214.102539,4217.563965,4218.461426,4214.230957,4215.000000,4210.512695,4217.563965,4219.487305,4220.512695,4268.589844,4956.153809,4217.051270,4224.487305,0.000000,2.000000,,,,0.000000,0.000000,0.000000,0.000000,0.000000,0.000000,0.000000,0.000000,0.000000,0.000000,0.000000,0.000000,0.000000,0.000000,0.000000,0.000000,,,,,,,,,,,,,,,,,,,,,,,,,,,,,,,,,,,,,,,,,,,,,,,,,,,,,,,,,,,,,,,,,,,,,,,,,,,,,,,,,,,,,,,,,,,,,,,,,,,,,,,,,,,,,,,,,,,,,,,,,,,,,,,
1598855932.496339,74.000000,0.000000,4217.179688,4213.717773,4215.256348,4214.230957,4212.820313,4214.358887,4210.512695,4217.948730,4220.384766,4220.897461,4270.000000,4955.000000,4218.717773,4223.589844,0.000000,2.000000,,,,0.000000,0.000000,0.000000,0.000000,0.000000,0.000000,0.000000,0.000000,0.000000,0.000000,0.000000,0.000000,0.000000,0.000000,0.000000,0.000000,37.000000,0.000000,8208.000000,8093.000000,8204.000000,12228.000000,7673.000000,8569.000000,8142.000000,8113.000000,7650.000000,,,,,,,,,,,,,,,,,,,,,,,,,,,,,,,,,,,,,,,,,,,,,,,,,,,,,,,,,,,,,,,,,,,,,,,,,,,,,,,,,,,,,,,,,,,,,,,,,,,,,,,,,,,,,,,,,,,,
1598855932.504219,75.000000,0.000000,4216.025879,4215.769043,4214.871582,4213.717773,4212.307617,4213.846191,4211.922852,4217.948730,4219.102539,4220.769043,4271.666504,4954.871582,4216.153809,4222.307617,0.000000,2.000000,,,,0.000000,0.000000,0.000000,0.000000,0.000000,0.000000,0.000000,0.000000,0.000000,0.000000,0.000000,0.000000,0.000000,0.000000,0.000000,0.000000,,,,,,,,,,,,,,,,,,,,,,,,,,,,,,,,,,,,,,,,,,,,,,,,,,,,,,,,,,,,,,,,,,,,,,,,,,,,,,,,,,,,,,,,,,,,,,,,,,,,,,,,,,,,,,,,,,,,,,,,,,,,,,,
1598855932.512100,76.000000,0.000000,4215.641113,4215.128418,4213.333496,4212.948730,4212.820313,4214.615234,4213.205078,4216.538574,4218.974121,4216.410156,4270.641113,4956.794922,4215.897461,4222.179688,0.000000,2.000000,,,,0.000000,0.000000,0.000000,0.000000,0.000000,0.000000,0.000000,0.000000,0.000000,0.000000,0.000000,0.000000,0.000000,0.000000,0.000000,0.000000,38.000000,0.000000,8211.000000,8086.000000,8205.000000,12224.000000,7691.000000,8588.000000,8141.000000,8114.000000,7647.000000,,,,,,,,,,,,,,,,,,,,,,,,,,,,,,,,,,,,,,,,,,,,,,,,,,,,,,,,,,,,,,,,,,,,,,,,,,,,,,,,,,,,,,,,,,,,,,,,,,,,,,,,,,,,,,,,,,,,
1598855932.519981,77.000000,0.000000,4217.436035,4213.461426,4214.615234,4215.000000,4212.436035,4213.461426,4210.897461,4216.153809,4217.436035,4215.769043,4270.641113,4958.589844,4218.589844,4221.794922,0.000000,2.000000,,,,0.000000,0.000000,0.000000,0.000000,0.000000,0.000000,0.000000,0.000000,0.000000,0.000000,0.000000,0.000000,0.000000,0.000000,0.000000,0.000000,,,,,,,,,,,,,,,,,,,,,,,,,,,,,,,,,,,,,,,,,,,,,,,,,,,,,,,,,,,,,,,,,,,,,,,,,,,,,,,,,,,,,,,,,,,,,,,,,,,,,,,,,,,,,,,,,,,,,,,,,,,,,,,
1598855932.527861,78.000000,0.000000,4217.820313,4214.358887,4216.025879,4216.025879,4210.512695,4212.692383,4211.153809,4217.051270,4213.461426,4219.743652,4270.128418,4954.102539,4218.333496,4223.461426,0.000000,2.000000,,,,0.000000,0.000000,0.000000,0.000000,0.000000,0.000000,0.000000,0.000000,0.000000,0.000000,0.000000,0.000000,0.000000,0.000000,0.000000,0.000000,39.000000,0.000000,8211.000000,8092.000000,8205.000000,12227.000000,7685.000000,8591.000000,8143.000000,8111.000000,7650.000000,,,,,,,,,,,,,,,,,,,,,,,,,,,,,,,,,,,,,,,,,,,,,,,,,,,,,,,,,,,,,,,,,,,,,,,,,,,,,,,,,,,,,,,,,,,,,,,,,,,,,,,,,,,,,,,,,,,,
1598855932.535642,79.000000,0.000000,4216.538574,4215.000000,4216.410156,4217.179688,4210.256348,4213.461426,4214.487305,4216.794922,4212.563965,4220.128418,4268.461426,4953.461426,4214.358887,4225.897461,0.000000,2.000000,,,,0.000000,0.000000,0.000000,0.000000,0.000000,0.000000,0.000000,0.000000,0.000000,0.000000,0.000000,0.000000,0.000000,0.000000,0.000000,0.000000,,,,,,,,,,,,,,,,,,,,,,,,,,,,,,,,,,,,,,,,,,,,,,,,,,,,,,,,,,,,,,,,,,,,,,,,,,,,,,,,,,,,,,,,,,,,,,,,,,,,,,,,,,,,,,,,,,,,,,,,,,,,,,,
1598855932.543523,80.000000,0.000000,4216.538574,4216.538574,4213.589844,4217.820313,4210.641113,4212.692383,4212.436035,4215.512695,4216.922852,4219.230957,4270.000000,4958.205078,4218.077148,4223.846191,0.000000,2.000000,,,,0.000000,0.000000,0.000000,0.000000,0.000000,0.000000,0.000000,0.000000,0.000000,0.000000,0.000000,0.000000,0.000000,0.000000,0.000000,0.000000,40.000000,0.000000,8211.000000,8095.000000,8203.000000,12221.000000,7663.000000,8575.000000,8144.000000,8117.000000,7651.000000,,,,,,,,,,,,,,,,,,,,,,,,,,,,,,,,,,,,,,,,,,,,,,,,,,,,,,,,,,,,,,,,,,,,,,,,,,,,,,,,,,,,,,,,,,,,,,,,,,,,,,,,,,,,,,,,,,,,
1598855932.551404,81.000000,0.000000,4216.282227,4215.897461,4213.461426,4218.461426,4211.794922,4214.615234,4211.025879,4215.769043,4220.512695,4221.153809,4270.128418,4956.794922,4220.000000,4221.922852,0.000000,2.000000,,,,0.000000,0.000000,0.000000,0.000000,0.000000,0.000000,0.000000,0.000000,0.000000,0.000000,0.000000,0.000000,0.000000,0.000000,0.000000,0.000000,,,,,,,,,,,,,,,,,,,,,,,,,,,,,,,,,,,,,,,,,,,,,,,,,,,,,,,,,,,,,,,,,,,,,,,,,,,,,,,,,,,,,,,,,,,,,,,,,,,,,,,,,,,,,,,,,,,,,,,,,,,,,,,
1598855932.559284,82.000000,0.000000,4215.256348,4214.487305,4217.307617,4216.922852,4211.282227,4215.897461,4213.589844,4216.153809,4220.641113,4221.282227,4269.102539,4953.846191,4217.179688,4223.717773,0.000000,2.000000,,,,0.000000,0.000000,0.000000,0.000000,0.000000,0.000000,0.000000,0.000000,0.000000,0.000000,0.000000,0.000000,0.000000,0.000000,0.000000,0.000000,41.000000,0.000000,8212.000000,8089.000000,8206.000000,12216.000000,7660.000000,8583.000000,8144.000000,8114.000000,7649.000000,,,,,,,,,,,,,,,,,,,,,,,,,,,,,,,,,,,,,,,,,,,,,,,,,,,,,,,,,,,,,,,,,,,,,,,,,,,,,,,,,,,,,,,,,,,,,,,,,,,,,,,,,,,,,,,,,,,,
1598855932.567165,83.000000,0.000000,4215.512695,4216.025879,4219.358887,4216.410156,4210.256348,4214.487305,4214.230957,4215.641113,4217.179688,4218.589844,4269.615234,4956.410156,4214.102539,4222.563965,0.000000,2.000000,,,,0.000000,0.000000,0.000000,0.000000,0.000000,0.000000,0.000000,0.000000,0.000000,0.000000,0.000000,0.000000,0.000000,0.000000,0.000000,0.000000,,,,,,,,,,,,,,,,,,,,,,,,,,,,,,,,,,,,,,,,,,,,,,,,,,,,,,,,,,0.007494,0.012982,0.005761,0.004051,0.011309,0.040393,0.055050,0.035941,0.021390,0.039291,0.043437,0.054703,0.015229,0.033215,0.032171,0.019945,0.010608,0.022780,0.015583,0.027497,0.016303,0.027492,0.025863,0.019429,0.027329,0.010391,0.022898,0.021244,0.016892,0.040636,0.010436,0.013135,0.012706,0.008207,0.021539,0.001500,0.000224,0.000411,0.000274,0.000154,0.034022,0.017186,0.022277,0.032431,0.033863,0.017781,0.007293,0.028491,0.015631,0.019351,0.005188,0.016535,0.020295,0.016977,0.021268,0.078509,0.057959,0.028220,0.022640,0.030258,0.030382,0.042802,0.033083,0.044719,0.025695,0.037146,0.038048,0.054659,0.033293,0.035272
1598855932.575046,84.000000,0.000000,4216.666504,4217.307617,4216.538574,4217.051270,4211.025879,4213.077148,4210.769043,4215.769043,4215.897461,4219.230957,4271.794922,4957.948730,4215.897461,4221.410156,0.000000,2.000000,,,,0.000000,0.000000,0.000000,0.000000,0.000000,0.000000,0.000000,0.000000,0.000000,0.000000,0.000000,0.000000,0.000000,0.000000,0.000000,0.000000,42.000000,0.000000,8207.000000,8094.000000,8210.000000,12233.000000,7666.000000,8564.000000,8146.000000,8111.000000,7648.000000,,,,,,,,,,,,,,,,,,,,,,,,,,,,,,,,,,,,,,,,,,,,,,,,,,,,,,,,,,,,,,,,,,,,,,,,,,,,,,,,,,,,,,,,,,,,,,,,,,,,,,,,,,,,,,,,,,,,
1598855932.582926,85.000000,0.000000,4217.051270,4216.410156,4217.436035,4217.307617,4213.333496,4215.000000,4210.384766,4216.922852,4218.717773,4221.410156,4269.743652,4954.743652,4218.717773,4222.820313,0.000000,2.000000,,,,0.000000,0.000000,0.000000,0.000000,0.000000,0.000000,0.000000,0.000000,0.000000,0.000000,0.000000,0.000000,0.000000,0.000000,0.000000,0.000000,,,,,,,,,,,,,,,,,,,,,,,,,,,,,,,,,,,,,,,,,,,,,,,,,,,,,,,,,,,,,,,,,,,,,,,,,,,,,,,,,,,,,,,,,,,,,,,,,,,,,,,,,,,,,,,,,,,,,,,,,,,,,,,
1598855932.590807,86.000000,0.000000,4216.922852,4215.000000,4220.897461,4215.512695,4213.333496,4215.000000,4213.461426,4217.563965,4218.717773,4221.666504,4266.666504,4956.025879,4219.487305,4222.948730,0.000000,2.000000,,,,0.000000,0.000000,0.000000,0.000000,0.000000,0.000000,0.000000,0.000000,0.000000,0.000000,0.000000,0.000000,0.000000,0.000000,0.000000,0.000000,43.000000,0.000000,8207.000000,8089.000000,8215.000000,12224.000000,7686.000000,8585.000000,8143.000000,8115.000000,7646.000000,,,,,,,,,,,,,,,,,,,,,,,,,,,,,,,,,,,,,,,,,,,,,,,,,,,,,,,,,,,,,,,,,,,,,,,,,,,,,,,,,,,,,,,,,,,,,,,,,,,,,,,,,,,,,,,,,,,,
1598855932.598688,87.000000,0.000000,4216.922852,4216.922852,4219.230957,4215.128418,4212.436035,4212.436035,4212.692383,4216.794922,4213.846191,4220.512695,4267.948730,4958.461426,4217.436035,4221.025879,0.000000,2.000000,,,,0.000000,0.000000,0.000000,0.000000,0.000000,0.000000,0.000000,0.000000,0.000000,0.000000,0.000000,0.000000,0.000000,0.000000,0.000000,0.000000,,,,,,,,,,,,,,,,,,,,,,,,,,,,,,,,,,,,,,,,,,,,,,,,,,,,,,,,,,,,,,,,,,,,,,,,,,,,,,,,,,,,,,,,,,,,,,,,,,,,,,,,,,,,,,,,,,,,,,,,,,,,,,,
1598855932.606468,88.000000,0.000000,4215.897461,4216.922852,4216.282227,4216.410156,4212.051270,4213.205078,4209.487305,4216.538574,4212.820313,4220.512695,4270.384766,4957.436035,4219.487305,4223.461426,0.000000,2.000000,,,,0.000000,0.000000,0.000000,0.000000,0.000000,0.000000,0.000000,0.000000,0.000000,0.000000,0.000000,0.000000,0.000000,0.000000,0.000000,0.000000,44.000000,0.000000,8206.000000,8094.000000,8202.000000,12228.000000,7662.000000,8574.000000,8148.000000,8118.000000,7648.000000,,,,,,,,,,,,,,,,,,,,,,,,,,,,,,,,,,,,,,,,,,,,,,,,,,,,,,,,,,,,,,,,,,,,,,,,,,,,,,,,,,,,,,,,,,,,,,,,,,,,,,,,,,,,,,,,,,,,
1598855932.614349,89.000000,0.000000,4215.384766,4212.563965,4217.820313,4215.256348,4211.666504,4215.769043,4212.051270,4216.794922,4215.769043,4220.512695,4268.974121,4954.102539,4219.230957,4224.871582,0.000000,2.000000,,,,0.000000,0.000000,0.000000,0.000000,0.000000,0.000000,0.000000,0.000000,0.000000,0.000000,0.000000,0.000000,0.000000,0.000000,0.000000,0.000000,,,,,,,,,,,,,,,,,,,,,,,,,,,,,,,,,,,,,,,,,,,,,,,,,,,,,,,,,,,,,,,,,,,,,,,,,,,,,,,,,,,,,,,,,,,,,,,,,,,,,,,,,,,,,,,,,,,,,,,,,,,,,,,
1598855932.622230,90.000000,0.000000,4217.179688,4211.794922,4218.846191,4216.410156,4212.436035,4213.589844,4212.692383,4216.666504,4215.512695,4218.205078,4267.563965,4955.512695,4212.563965,4221.794922,0.000000,2.000000,,,,0.000000,0.000000,0.000000,0.000000,0.000000,0.000000,0.000000,0.000000,0.000000,0.000000,0.000000,0.000000,0.000000,0.000000,0.000000,0.000000,45.000000,0.000000,8210.000000,8095.000000,8204.000000,12230.000000,7677.000000,8586.000000,8145.000000,8112.000000,7644.000000,,,,,,,,,,,,,,,,,,,,,,,,,,,,,,,,,,,,,,,,,,,,,,,,,,,,,,,,,,,,,,,,,,,,,,,,,,,,,,,,,,,,,,,,,,,,,,,,,,,,,,,,,,,,,,,,,,,,
1598855932.630111,91.000000,0.000000,4217.948730,4215.384766,4216.410156,4218.589844,4213.205078,4211.666504,4209.615234,4217.179688,4217.051270,4218.846191,4268.974121,4956.922852,4213.846191,4219.102539,0.000000,2.000000,,,,0.000000,0.000000,0.000000,0.000000,0.000000,0.000000,0.000000,0.000000,0.000000,0.000000,0.000000,0.000000,0.000000,0.000000,0.000000,0.000000,,,,,,,,,,,,,,,,,,,,,,,,,,,,,,,,,,,,,,,,,,,,,,,,,,,,,,,,,,,,,,,,,,,,,,,,,,,,,,,,,,,,,,,,,,,,,,,,,,,,,,,,,,,,,,,,,,,,,,,,,,,,,,,
1598855932.637991,92.000000,0.000000,4216.025879,4214.871582,4219.487305,4218.717773,4213.077148,4213.333496,4210.512695,4217.820313,4219.487305,4221.153809,4270.000000,4957.948730,4218.333496,4222.179688,0.000000,2.000000,,,,0.000000,0.000000,0.000000,0.000000,0.000000,0.000000,0.000000,0.000000,0.000000,0.000000,0.000000,0.000000,0.000000,0.000000,0.000000,0.000000,46.000000,0.000000,8205.000000,8089.000000,8206.000000,12228.000000,7656.000000,8571.000000,8141.000000,8114.000000,7647.000000,,,,,,,,,,,,,,,,,,,,,,,,,,,,,,,,,,,,,,,,,,,,,,,,,,,,,,,,,,,,,,,,,,,,,,,,,,,,,,,,,,,,,,,,,,,,,,,,,,,,,,,,,,,,,,,,,,,,
1598855932.645872,93.000000,0.000000,4215.769043,4212.692383,4219.487305,4217.051270,4212.820313,4211.922852,4211.666504,4217.820313,4218.461426,4221.538574,4269.743652,4955.897461,4218.205078,4226.282227,0.000000,2.000000,,,,0.000000,0.000000,0.000000,0.000000,0.000000,0.000000,0.000000,0.000000,0.000000,0.000000,0.000000,0.000000,0.000000,0.000000,0.000000,0.000000,,,,,,,,,,,,,,,,,,,,,,,,,,,,,,,,,,,,,,,,,,,,,,,,,,,,,,,,,,,,,,,,,,,,,,,,,,,,,,,,,,,,,,,,,,,,,,,,,,,,,,,,,,,,,,,,,,,,,,,,,,,,,,,
1598855932.653753,94.000000,0.000000,4216.922852,4216.153809,4216.282227,4217.820313,4214.102539,4208.717773,4210.384766,4217.692383,4218.589844,4221.282227,4268.846191,4953.205078,4217.563965,4223.077148,0.000000,2.000000,,,,0.000000,0.000000,0.000000,0.000000,0.000000,0.000000,0.000000,0.000000,0.000000,0.000000,0.000000,0.000000,0.000000,0.000000,0.000000,0.000000,47.000000,0.000000,8209.000000,8094.000000,8204.000000,12224.000000,7682.000000,8578.000000,8145.000000,8118.000000,7647.000000,,,,,,,,,,,,,,,,,,,,,,,,,,,,,,,,,,,,,,,,,,,,,,,,,,,,,,,,,,,,,,,,,,,,,,,,,,,,,,,,,,,,,,,,,,,,,,,,,,,,,,,,,,,,,,,,,,,,
1598855932.661633,95.000000,0.000000,4216.794922,4214.871582,4213.205078,4216.794922,4212.948730,4212.179688,4210.769043,4217.820313,4221.025879,4222.563965,4268.461426,4953.717773,4218.205078,4219.487305,0.000000,2.000000,,,,0.000000,0.000000,0.000000,0.000000,0.000000,0.000000,0.000000,0.000000,0.000000,0.000000,0.000000,0.000000,0.000000,0.000000,0.000000,0.000000,,,,,,,,,,,,,,,,,,,,,,,,,,,,,,,,,,,,,,,,,,,,,,,,,,,,,,,,,,,,,,,,,,,,,,,,,,,,,,,,,,,,,,,,,,,,,,,,,,,,,,,,,,,,,,,,,,,,,,,,,,,,,,,
1598855932.669514,96.000000,0.000000,4216.666504,4212.307617,4216.538574,4216.025879,4211.794922,4215.384766,4211.666504,4217.820313,4217.179688,4220.897461,4268.333496,4957.820313,4215.641113,4223.974121,0.000000,2.000000,,,,0.000000,0.000000,0.000000,0.000000,0.000000,0.000000,0.000000,0.000000,0.000000,0.000000,0.000000,0.000000,0.000000,0.000000,0.000000,0.000000,48.000000,0.000000,8207.000000,8093.000000,8209.000000,12221.000000,7652.000000,8577.000000,8146.000000,8116.000000,7649.000000,,,,,,,,,,,,,,,,,,,,,,,,,,,,,,,,,,,,,,,,,,,,,,,,,,,,,,,,,,,,,,,,,,,,,,,,,,,,,,,,,,,,,,,,,,,,,,,,,,,,,,,,,,,,,,,,,,,,
1598855932.677395,97.000000,0.000000,4216.922852,4213.974121,4217.948730,4215.769043,4213.589844,4212.436035,4211.025879,4217.820313,4214.743652,4218.974121,4269.230957,4958.333496,4219.743652,4226.153809,0.000000,2.000000,,,,0.000000,0.000000,0.000000,0.000000,0.000000,0.000000,0.000000,0.000000,0.000000,0.000000,0.000000,0.000000,0.000000,0.000000,0.000000,0.000000,,,,,,,,,,,,,,,,,,,,,,,,,,,,,,,,,,,,,,,,,,,,,,,,,,,,,,,,,,,,,,,,,,,,,,,,,,,,,,,,,,,,,,,,,,,,,,,,,,,,,,,,,,,,,,,,,,,,,,,,,,,,,,,
1598855932.685175,98.000000,0.000000,4216.153809,4212.307617,4216.538574,4216.794922,4215.769043,4212.307617,4212.436035,4217.563965,4218.974121,4218.717773,4270.256348,4956.282227,4222.436035,4223.077148,0.000000,2.000000,,,,0.000000,0.000000,0.000000,0.000000,0.000000,0.000000,0.000000,0.000000,0.000000,0.000000,0.000000,0.000000,0.000000,0.000000,0.000000,0.000000,49.000000,0.000000,8203.000000,8094.000000,8202.000000,12226.000000,7654.000000,8568.000000,8141.000000,8116.000000,7644.000000,,,,,,,,,,,,,,,,,,,,,,,,,,,,,,,,,,,,,,,,,,,,,,,,,,,,,,,,,,,,,,,,,,,,,,,,,,,,,,,,,,,,,,,,,,,,,,,,,,,,,,,,,,,,,,,,,,,,
1598855932.693056,99.000000,0.000000,4216.153809,4210.897461,4216.025879,4216.025879,4213.589844,4214.743652,4212.051270,4217.820313,4221.538574,4220.897461,4268.461426,4956.410156,4217.820313,4224.102539,0.000000,2.000000,,,,0.000000,0.000000,0.000000,0.000000,0.000000,0.000000,0.000000,0.000000,0.000000,0.000000,0.000000,0.000000,0.000000,0.000000,0.000000,0.000000,,,,,,,,,,,,,,,,,,,,,,,,,,,,,,,,,,,,,,,,,,,,,,,,,,,,,,,,,,0.008007,0.012602,0.006833,0.004447,0.012059,0.038055,0.057670,0.032199,0.023022,0.040366,0.041312,0.067253,0.014304,0.031171,0.031687,0.019377,0.010199,0.017490,0.017227,0.028521,0.017663,0.024228,0.025170,0.020592,0.026175,0.010794,0.027243,0.024395,0.017106,0.041593,0.009647,0.013614,0.010617,0.009879,0.021984,0.001043,0.000196,0.000333,0.000229,0.000119,0.033325,0.020739,0.023023,0.028415,0.035154,0.019458,0.006143,0.025349,0.016609,0.018672,0.007424,0.015077,0.019717,0.015042,0.022817,0.073188,0.064257,0.026640,0.019663,0.035409,0.040338,0.045423,0.033146,0.047437,0.026568,0.036941,0.032464,0.044773,0.029259,0.032114
1598855932.700937,100.000000,0.000000,4217.307617,4215.384766,4218.589844,4216.153809,4212.820313,4215.769043,4211.538574,4217.948730,4220.128418,4221.794922,4267.563965,4955.384766,4214.871582,4225.128418,0.000000,2.000000,,,,0.000000,0.000000,0.000000,0.000000,0.000000,0.000000,0.000000,0.000000,0.000000,0.000000,0.000000,0.000000,0.000000,0.000000,0.000000,0.000000,50.000000,0.000000,8212.000000,8092.000000,8201.000000,12219.000000,7655.000000,8570.000000,8144.000000,8113.000000,7650.000000,,,,,,,,,,,,,,,,,,,,,,,,,,,,,,,,,,,,,,,,,,,,,,,,,,,,,,,,,,,,,,,,,,,,,,,,,,,,,,,,,,,,,,,,,,,,,,,,,,,,,,,,,,,,,,,,,,,,
1598855932.708818,101.000000,0.000000,4216.538574,4217.820313,4220.256348,4216.922852,4214.230957,4213.589844,4212.051270,4217.307617,4219.871582,4218.589844,4271.282227,4953.846191,4220.512695,4221.666504,0.000000,2.000000,,,,0.000000,0.000000,0.000000,0.000000,0.000000,0.000000,0.000000,0.000000,0.000000,0.000000,0.000000,0.000000,0.000000,0.000000,0.000000,0.000000,,,,,,,,,,,,,,,,,,,,,,,,,,,,,,,,,,,,,,,,,,,,,,,,,,,,,,,,,,,,,,,,,,,,,,,,,,,,,,,,,,,,,,,,,,,,,,,,,,,,,,,,,,,,,,,,,,,,,,,,,,,,,,,
1598855932.716698,102.000000,0.000000,4215.897461,4215.769043,4218.974121,4216.538574,4214.358887,4212.307617,4212.051270,4216.666504,4220.769043,4218.589844,4271.922852,4954.743652,4219.871582,4220.000000,0.000000,2.000000,,,,0.000000,0.000000,0.000000,0.000000,0.000000,0.000000,0.000000,0.000000,0.000000,0.000000,0.000000,0.000000,0.000000,0.000000,0.000000,0.000000,51.000000,0.000000,8206.000000,8094.000000,8204.000000,12225.000000,7698.000000,8583.000000,8142.000000,8114.000000,7647.000000,,,,,,,,,,,,,,,,,,,,,,,,,,,,,,,,,,,,,,,,,,,,,,,,,,,,,,,,,,,,,,,,,,,,,,,,,,,,,,,,,,,,,,,,,,,,,,,,,,,,,,,,,,,,,,,,,,,,
1598855932.724579,103.000000,0.000000,4217.051270,4214.487305,4215.128418,4214.615234,4212.179688,4212.051270,4211.538574,4217.051270,4220.128418,4222.563965,4269.615234,4956.922852,4216.025879,4222.948730,0.000000,2.000000,,,,0.000000,0.000000,0.000000,0.000000,0.000000,0.000000,0.000000,0.000000,0.000000,0.000000,0.000000,0.000000,0.000000,0.000000,0.000000,0.000000,,,,,,,,,,,,,,,,,,,,,,,,,,,,,,,,,,,,,,,,,,,,,,,,,,,,,,,,,,,,,,,,,,,,,,,,,,,,,,,,,,,,,,,,,,,,,,,,,,,,,,,,,,,,,,,,,,,,,,,,,,,,,,,
1598855932.732460,104.000000,0.000000,4217.179688,4215.641113,4213.077148,4215.384766,4211.025879,4214.743652,4213.333496,4216.794922,4216.794922,4222.692383,4269.615234,4956.153809,4215.769043,4222.051270,0.000000,2.000000,,,,0.000000,0.000000,0.000000,0.000000,0.000000,0.000000,0.000000,0.000000,0.000000,0.000000,0.000000,0.000000,0.000000,0.000000,0.000000,0.000000,52.000000,0.000000,8210.000000,8091.000000,8207.000000,12220.000000,7633.000000,8576.000000,8144.000000,8116.000000,7649.000000,,,,,,,,,,,,,,,,,,,,,,,,,,,,,,,,,,,,,,,,,,,,,,,,,,,,,,,,,,,,,,,,,,,,,,,,,,,,,,,,,,,,,,,,,,,,,,,,,,,,,,,,,,,,,,,,,,,,
1598855932.740340,105.000000,0.000000,4216.922852,4216.538574,4215.512695,4216.922852,4211.794922,4217.051270,4213.077148,4215.769043,4214.487305,4220.000000,4271.282227,4957.563965,4218.333496,4219.871582,0.000000,2.000000,,,,0.000000,0.000000,0.000000,0.000000,0.000000,0.000000,0.000000,0.000000,0.000000,0.000000,0.000000,0.000000,0.000000,0.000000,0.000000,0.000000,,,,,,,,,,,,,,,,,,,,,,,,,,,,,,,,,,,,,,,,,,,,,,,,,,,,,,,,,,,,,,,,,,,,,,,,,,,,,,,,,,,,,,,,,,,,,,,,,,,,,,,,,,,,,,,,,,,,,,,,,,,,,,,
1598855932.748221,106.000000,0.000000,4217.563965,4216.410156,4214.615234,4216.153809,4213.077148,4215.769043,4210.256348,4215.769043,4217.820313,4221.282227,4270.384766,4959.871582,4218.589844,4219.615234,0.000000,2.000000,,,,0.000000,0.000000,0.000000,0.000000,0.000000,0.000000,0.000000,0.000000,0.000000,0.000000,0.000000,0.000000,0.000000,0.000000,0.000000,0.000000,53.000000,0.000000,8204.000000,8095.000000,8202.000000,12226.000000,7665.000000,8578.000000,8143.000000,8112.000000,7647.000000,,,,,,,,,,,,,,,,,,,,,,,,,,,,,,,,,,,,,,,,,,,,,,,,,,,,,,,,,,,,,,,,,,,,,,,,,,,,,,,,,,,,,,,,,,,,,,,,,,,,,,,,,,,,,,,,,,,,
1598855932.756102,107.000000,0.000000,4217.563965,4213.461426,4213.077148,4216.410156,4212.307617,4213.333496,4209.743652,4217.051270,4219.615234,4222.051270,4271.025879,4959.358887,4216.794922,4223.974121,0.000000,2.000000,,,,0.000000,0.000000,0.000000,0.000000,0.000000,0.000000,0.000000,0.000000,0.000000,0.000000,0.000000,0.000000,0.000000,0.000000,0.000000,0.000000,,,,,,,,,,,,,,,,,,,,,,,,,,,,,,,,,,,,,,,,,,,,,,,,,,,,,,,,,,,,,,,,,,,,,,,,,,,,,,,,,,,,,,,,,,,,,,,,,,,,,,,,,,,,,,,,,,,,,,,,,,,,,,,
1598855932.763882,108.000000,0.000000,4216.282227,4212.820313,4216.153809,4216.282227,4210.897461,4212.948730,4212.436035,4217.692383,4215.256348,4218.974121,4271.538574,4956.153809,4216.410156,4225.769043,0.000000,2.000000,,,,0.000000,0.000000,0.000000,0.000000,0.000000,0.000000,0.000000,0.000000,0.000000,0.000000,0.000000,0.000000,0.000000,0.000000,0.000000,0.000000,54.000000,0.000000,8207.000000,8098.000000,8200.000000,12224.000000,7682.000000,8581.000000,8148.000000,8115.000000,7648.000000,,,,,,,,,,,,,,,,,,,,,,,,,,,,,,,,,,,,,,,,,,,,,,,,,,,,,,,,,,,,,,,,,,,,,,,,,,,,,,,,,,,,,,,,,,,,,,,,,,,,,,,,,,,,,,,,,,,,
1598855932.771763,109.000000,0.000000,4215.897461,4213.461426,4218.333496,4215.384766,4211.666504,4214.358887,4211.922852,4217.692383,4213.974121,4217.307617,4270.769043,4955.641113,4216.410156,4221.282227,0.000000,2.000000,,,,0.000000,0.000000,0.000000,0.000000,0.000000,0.000000,0.000000,0.000000,0.000000,0.000000,0.000000,0.000000,0.000000,0.000000,0.000000,0.000000,,,,,,,,,,,,,,,,,,,,,,,,,,,,,,,,,,,,,,,,,,,,,,,,,,,,,,,,,,,,,,,,,,,,,,,,,,,,,,,,,,,,,,,,,,,,,,,,,,,,,,,,,,,,,,,,,,,,,,,,,,,,,,,
1598855932.779644,110.000000,0.000000,4217.436035,4213.717773,4214.615234,4215.769043,4212.179688,4215.256348,4209.743652,4217.436035,4216.666504,4220.384766,4270.128418,4956.282227,4216.794922,4220.000000,0.000000,2.000000,,,,0.000000,0.000000,0.000000,0.000000,0.000000,0.000000,0.000000,0.000000,0.000000,0.000000,0.000000,0.000000,0.000000,0.000000,0.000000,0.000000,55.000000,0.000000,8206.000000,8087.000000,8201.000000,12229.000000,7681.000000,8576.000000,8143.000000,8114.000000,7648.000000,,,,,,,,,,,,,,,,,,,,,,,,,,,,,,,,,,,,,,,,,,,,,,,,,,,,,,,,,,,,,,,,,,,,,,,,,,,,,,,,,,,,,,,,,,,,,,,,,,,,,,,,,,,,,,,,,,,,
1598855932.787525,111.000000,0.000000,4217.179688,4215.128418,4214.743652,4217.820313,4212.307617,4215.897461,4210.769043,4217.563965,4216.666504,4222.692383,4270.384766,4958.974121,4215.897461,4225.000000,0.000000,2.000000,,,,0.000000,0.000000,0.000000,0.000000,0.000000,0.000000,0.000000,0.000000,0.000000,0.000000,0.000000,0.000000,0.000000,0.000000,0.000000,0.000000,,,,,,,,,,,,,,,,,,,,,,,,,,,,,,,,,,,,,,,,,,,,,,,,,,,,,,,,,,,,,,,,,,,,,,,,,,,,,,,,,,,,,,,,,,,,,,,,,,,,,,,,,,,,,,,,,,,,,,,,,,,,,,,
1598855932.795405,112.000000,0.000000,4215.384766,4217.307617,4215.897461,4217.051270,4214.358887,4214.487305,4212.179688,4217.948730,4215.769043,4221.922852,4270.128418,4958.846191,4217.563965,4225.000000,0.000000,2.000000,,,,0.000000,0.000000,0.000000,0.000000,0.000000,0.000000,0.000000,0.000000,0.000000,0.000000,0.000000,0.000000,0.000000,0.000000,0.000000,0.000000,56.000000,0.000000,8210.000000,8088.000000,8207.000000,12229.000000,7686.000000,8573.000000,8145.000000,8114.000000,7649.000000,,,,,,,,,,,,,,,,,,,,,,,,,,,,,,,,,,,,,,,,,,,,,,,,,,,,,,,,,,,,,,,,,,,,,,,,,,,,,,,,,,,,,,,,,,,,,,,,,,,,,,,,,,,,,,,,,,,,
1598855932.803286,113.000000,0.000000,4215.512695,4216.922852,4217.179688,4216.794922,4215.512695,4214.615234,4211.410156,4217.051270,4217.692383,4221.282227,4268.333496,4956.666504,4217.948730,4221.666504,0.000000,2.000000,,,,0.000000,0.000000,0.000000,0.000000,0.000000,0.000000,0.000000,0.000000,0.000000,0.000000,0.000000,0.000000,0.000000,0.000000,0.000000,0.000000,,,,,,,,,,,,,,,,,,,,,,,,,,,,,,,,,,,,,,,,,,,,,,,,,,,,,,,,,,,,,,,,,,,,,,,,,,,,,,,,,,,,,,,,,,,,,,,,,,,,,,,,,,,,,,,,,,,,,,,,,,,,,,,
1598855932.811167,114.000000,0.000000,4216.794922,4214.230957,4216.538574,4216.282227,4212.563965,4216.410156,4211.794922,4215.769043,4219.871582,4222.051270,4269.102539,4955.000000,4215.897461,4223.077148,0.000000,2.000000,,,,0.000000,0.000000,0.000000,0.000000,0.000000,0.000000,0.000000,0.000000,0.000000,0.000000,0.000000,0.000000,0.000000,0.000000,0.000000,0.000000,57.000000,0.000000,8214.000000,8088.000000,8207.000000,12228.000000,7682.000000,8578.000000,8142.000000,8100.000000,7648.000000,,,,,,,,,,,,,,,,,,,,,,,,,,,,,,,,,,,,,,,,,,,,,,,,,,,,,,,,,,,,,,,,,,,,,,,,,,,,,,,,,,,,,,,,,,,,,,,,,,,,,,,,,,,,,,,,,,,,
1598855932.819047,115.000000,0.000000,4217.436035,4214.358887,4216.282227,4217.051270,4211.922852,4217.051270,4212.307617,4216.410156,4218.461426,4221.922852,4269.743652,4955.128418,4213.974121,4223.846191,0.000000,2.000000,,,,0.000000,0.000000,0.000000,0.000000,0.000000,0.000000,0.000000,0.000000,0.000000,0.000000,0.000000,0.000000,0.000000,0.000000,0.000000,0.000000,,,,,,,,,,,,,,,,,,,,,,,,,,,,,,,,,,,,,,,,,,,,,,,,,,,,,,,,,,0.008252,0.012316,0.008366,0.004616,0.012207,0.034513,0.056766,0.029984,0.025945,0.040580,0.036787,0.074917,0.014061,0.029799,0.031717,0.019626,0.010813,0.013377,0.019638,0.029305,0.019035,0.021356,0.024243,0.021278,0.025535,0.011187,0.032287,0.026797,0.018045,0.041425,0.009246,0.013505,0.008313,0.011629,0.021172,0.000907,0.000226,0.000267,0.000212,0.000104,0.032812,0.023109,0.023605,0.025706,0.036728,0.021938,0.007227,0.023242,0.018082,0.018736,0.010890,0.013486,0.018645,0.013726,0.023639,0.061192,0.063995,0.024736,0.017680,0.040425,0.052508,0.046636,0.030488,0.047653,0.028533,0.036916,0.026152,0.034078,0.026248,0.029271
1598855932.826828,116.000000,0.000000,4216.538574,4214.871582,4215.897461,4215.641113,4213.846191,4214.743652,4209.871582,4217.436035,4215.769043,4221.922852,4270.128418,4954.871582,4216.794922,4222.051270,0.000000,2.000000,,,,0.000000,0.000000,0.000000,0.000000,0.000000,0.000000,0.000000,0.000000,0.000000,0.000000,0.000000,0.000000,0.000000,0.000000,0.000000,0.000000,58.000000,0.000000,8211.000000,8094.000000,8203.000000,12224.000000,7686.000000,8590.000000,8140.000000,8116.000000,7648.000000,,,,,,,,,,,,,,,,,,,,,,,,,,,,,,,,,,,,,,,,,,,,,,,,,,,,,,,,,,,,,,,,,,,,,,,,,,,,,,,,,,,,,,,,,,,,,,,,,,,,,,,,,,,,,,,,,,,,
1598855932.834709,117.000000,0.000000,4214.871582,4212.179688,4215.769043,4215.512695,4215.000000,4214.743652,4210.128418,4217.436035,4214.487305,4222.436035,4270.512695,4956.410156,4218.077148,4223.333496,0.000000,2.000000,,,,0.000000,0.000000,0.000000,0.000000,0.000000,0.000000,0.000000,0.000000,0.000000,0.000000,0.000000,0.000000,0.000000,0.000000,0.000000,0.000000,,,,,,,,,,,,,,,,,,,,,,,,,,,,,,,,,,,,,,,,,,,,,,,,,,,,,,,,,,,,,,,,,,,,,,,,,,,,,,,,,,,,,,,,,,,,,,,,,,,,,,,,,,,,,,,,,,,,,,,,,,,,,,,
1598855932.842589,118.000000,0.000000,4215.512695,4210.897461,4213.589844,4217.307617,4213.205078,4214.743652,4213.461426,4217.436035,4216.282227,4222.820313,4270.384766,4958.205078,4218.077148,4225.769043,0.000000,2.000000,,,,0.000000,0.000000,0.000000,0.000000,0.000000,0.000000,0.000000,0.000000,0.000000,0.000000,0.000000,0.000000,0.000000,0.000000,0.000000,0.000000,59.000000,0.000000,8209.000000,8093.000000,8198.000000,12228.000000,7678.000000,8580.000000,8141.000000,8114.000000,7650.000000,,,,,,,,,,,,,,,,,,,,,,,,,,,,,,,,,,,,,,,,,,,,,,,,,,,,,,,,,,,,,,,,,,,,,,,,,,,,,,,,,,,,,,,,,,,,,,,,,,,,,,,,,,,,,,,,,,,,
1598855932.850470,119.000000,0.000000,4217.563965,4215.897461,4215.897461,4218.461426,4211.794922,4214.102539,4212.820313,4217.692383,4216.410156,4221.025879,4268.846191,4954.871582,4215.256348,4222.820313,0.000000,2.000000,,,,0.000000,0.000000,0.000000,0.000000,0.000000,0.000000,0.000000,0.000000,0.000000,0.000000,0.000000,0.000000,0.000000,0.000000,0.000000,0.000000,,,,,,,,,,,,,,,,,,,,,,,,,,,,,,,,,,,,,,,,,,,,,,,,,,,,,,,,,,,,,,,,,,,,,,,,,,,,,,,,,,,,,,,,,,,,,,,,,,,,,,,,,,,,,,,,,,,,,,,,,,,,,,,
1598855932.858351,120.000000,0.000000,4216.794922,4217.436035,4216.794922,4216.666504,4213.846191,4214.358887,4209.487305,4217.692383,4215.641113,4218.589844,4269.743652,4953.974121,4215.769043,4219.102539,0.000000,2.000000,,,,0.000000,0.000000,0.000000,0.000000,0.000000,0.000000,0.000000,0.000000,0.000000,0.000000,0.000000,0.000000,0.000000,0.000000,0.000000,0.000000,60.000000,0.000000,8212.000000,8086.000000,8207.000000,12220.000000,7657.000000,8582.000000,8143.000000,8111.000000,7646.000000,,,,,,,,,,,,,,,,,,,,,,,,,,,,,,,,,,,,,,,,,,,,,,,,,,,,,,,,,,,,,,,,,,,,,,,,,,,,,,,,,,,,,,,,,,,,,,,,,,,,,,,,,,,,,,,,,,,,
1598855932.866231,121.000000,0.000000,4216.794922,4213.077148,4213.205078,4218.205078,4216.794922,4215.641113,4209.871582,4217.692383,4216.410156,4220.256348,4270.769043,4955.384766,4218.974121,4218.974121,0.000000,2.000000,,,,0.000000,0.000000,0.000000,0.000000,0.000000,0.000000,0.000000,0.000000,0.000000,0.000000,0.000000,0.000000,0.000000,0.000000,0.000000,0.000000,,,,,,,,,,,,,,,,,,,,,,,,,,,,,,,,,,,,,,,,,,,,,,,,,,,,,,,,,,,,,,,,,,,,,,,,,,,,,,,,,,,,,,,,,,,,,,,,,,,,,,,,,,,,,,,,,,,,,,,,,,,,,,,
1598855932.874112,122.000000,0.000000,4218.077148,4212.307617,4214.615234,4220.256348,4212.692383,4214.102539,4210.512695,4217.820313,4216.922852,4222.179688,4270.769043,4955.512695,4220.384766,4223.717773,0.000000,2.000000,,,,0.000000,0.000000,0.000000,0.000000,0.000000,0.000000,0.000000,0.000000,0.000000,0.000000,0.000000,0.000000,0.000000,0.000000,0.000000,0.000000,61.000000,0.000000,8208.000000,8083.000000,8198.000000,12213.000000,7643.000000,8576.000000,8143.000000,8114.000000,7647.000000,,,,,,,,,,,,,,,,,,,,,,,,,,,,,,,,,,,,,,,,,,,,,,,,,,,,,,,,,,,,,,,,,,,,,,,,,,,,,,,,,,,,,,,,,,,,,,,,,,,,,,,,,,,,,,,,,,,,
1598855932.881993,123.000000,0.000000,4216.538574,4215.384766,4219.487305,4217.436035,4209.487305,4212.692383,4210.384766,4217.436035,4217.820313,4220.256348,4270.128418,4955.512695,4216.410156,4225.512695,0.000000,2.000000,,,,0.000000,0.000000,0.000000,0.000000,0.000000,0.000000,0.000000,0.000000,0.000000,0.000000,0.000000,0.000000,0.000000,0.000000,0.000000,0.000000,,,,,,,,,,,,,,,,,,,,,,,,,,,,,,,,,,,,,,,,,,,,,,,,,,,,,,,,,,,,,,,,,,,,,,,,,,,,,,,,,,,,,,,,,,,,,,,,,,,,,,,,,,,,,,,,,,,,,,,,,,,,,,,
1598855932.889874,124.000000,0.000000,4215.769043,4215.256348,4218.205078,4215.256348,4216.025879,4212.051270,4211.025879,4217.436035,4218.589844,4220.384766,4270.384766,4956.282227,4214.615234,4224.102539,0.000000,2.000000,,,,0.000000,0.000000,0.000000,0.000000,0.000000,0.000000,0.000000,0.000000,0.000000,0.000000,0.000000,0.000000,0.000000,0.000000,0.000000,0.000000,62.000000,0.000000,8203.000000,8098.000000,8196.000000,12222.000000,7637.000000,8568.000000,8142.000000,8113.000000,7647.000000,,,,,,,,,,,,,,,,,,,,,,,,,,,,,,,,,,,,,,,,,,,,,,,,,,,,,,,,,,,,,,,,,,,,,,,,,,,,,,,,,,,,,,,,,,,,,,,,,,,,,,,,,,,,,,,,,,,,
1598855932.897754,125.000000,0.000000,4217.051270,4213.589844,4215.512695,4217.948730,4217.051270,4213.846191,4212.563965,4218.205078,4220.641113,4224.487305,4270.897461,4953.846191,4216.282227,4223.333496,0.000000,2.000000,,,,0.000000,0.000000,0.000000,0.000000,0.000000,0.000000,0.000000,0.000000,0.000000,0.000000,0.000000,0.000000,0.000000,0.000000,0.000000,0.000000,,,,,,,,,,,,,,,,,,,,,,,,,,,,,,,,,,,,,,,,,,,,,,,,,,,,,,,,,,,,,,,,,,,,,,,,,,,,,,,,,,,,,,,,,,,,,,,,,,,,,,,,,,,,,,,,,,,,,,,,,,,,,,,
1598855932.905535,126.000000,0.000000,4217.307617,4213.077148,4220.256348,4220.256348,4212.692383,4215.769043,4213.205078,4216.922852,4220.256348,4225.000000,4270.769043,4956.922852,4214.615234,4222.563965,0.000000,2.000000,,,,0.000000,0.000000,0.000000,0.000000,0.000000,0.000000,0.000000,0.000000,0.000000,0.000000,0.000000,0.000000,0.000000,0.000000,0.000000,0.000000,63.000000,0.000000,8214.000000,8091.000000,8201.000000,12227.000000,7706.000000,8592.000000,8141.000000,8117.000000,7649.000000,,,,,,,,,,,,,,,,,,,,,,,,,,,,,,,,,,,,,,,,,,,,,,,,,,,,,,,,,,,,,,,,,,,,,,,,,,,,,,,,,,,,,,,,,,,,,,,,,,,,,,,,,,,,,,,,,,,,
1598855932.913415,127.000000,0.000000,4216.153809,4214.230957,4219.743652,4216.922852,4215.769043,4214.230957,4212.820313,4215.000000,4218.846191,4221.025879,4269.358887,4960.000000,4214.615234,4220.256348,51.000000,2.000000,,,,0.000000,0.000000,0.000000,0.000000,0.000000,0.000000,0.000000,0.000000,0.000000,0.000000,0.000000,0.000000,0.000000,0.000000,0.000000,0.000000,,,,,,,,,,,,,,,,,,,,,,,,,,,,,,,,,,,,,,,,,,,,,,,,,,,,,,,,,,,,,,,,,,,,,,,,,,,,,,,,,,,,,,,,,,,,,,,,,,,,,,,,,,,,,,,,,,,,,,,,,,,,,,,
1598855932.921296,0.000000,0.000000,4215.000000,4215.384766,4215.128418,4217.051270,4217.820313,4213.333496,4211.794922,4216.025879,4218.461426,4219.487305,4268.846191,4958.717773,4216.922852,4222.307617,0.000000,2.000000,,,,0.000000,0.000000,0.000000,0.000000,0.000000,0.000000,0.000000,0.000000,0.000000,0.000000,0.000000,0.000000,0.000000,0.000000,0.000000,0.000000,0.000000,0.000000,8209.000000,8095.000000,8203.000000,12226.000000,7658.000000,8572.000000,8142.000000,8126.000000,7651.000000,,,,,,,,,,,,,,,,,,,,,,,,,,,,,,,,,,,,,,,,,,,,,,,,,,,,,,,,,,,,,,,,,,,,,,,,,,,,,,,,,,,,,,,,,,,,,,,,,,,,,,,,,,,,,,,,,,,,
1598855932.929176,1.000000,0.000000,4215.256348,4217.051270,4216.282227,4220.512695,4212.307617,4216.410156,4211.410156,4217.436035,4221.794922,4223.461426,4269.487305,4955.256348,4216.922852,4223.717773,0.000000,2.000000,,,,0.000000,0.000000,0.000000,0.000000,0.000000,0.000000,0.000000,0.000000,0.000000,0.000000,0.000000,0.000000,0.000000,0.000000,0.000000,0.000000,,,,,,,,,,,,,,,,,,,,,,,,,,,,,,,,,,,,,,,,,,,,,,,,,,,,,,,,,,,,,,,,,,,,,,,,,,,,,,,,,,,,,,,,,,,,,,,,,,,,,,,,,,,,,,,,,,,,,,,,,,,,,,,
1598855932.937057,2.000000,0.000000,4216.538574,4218.846191,4221.153809,4218.974121,4213.333496,4215.128418,4212.307617,4216.282227,4221.282227,4224.358887,4269.743652,4955.897461,4218.077148,4221.153809,0.000000,2.000000,,,,0.000000,0.000000,0.000000,0.000000,0.000000,0.000000,0.000000,0.000000,0.000000,0.000000,0.000000,0.000000,0.000000,0.000000,0.000000,0.000000,1.000000,0.000000,8213.000000,8085.000000,8206.000000,12227.000000,7621.000000,8588.000000,8142.000000,8117.000000,7646.000000,,,,,,,,,,,,,,,,,,,,,,,,,,,,,,,,,,,,,,,,,,,,,,,,,,,,,,,,,,,,,,,,,,,,,,,,,,,,,,,,,,,,,,,,,,,,,,,,,,,,,,,,,,,,,,,,,,,,
1598855932.944937,3.000000,0.000000,4216.282227,4214.743652,4217.692383,4213.846191,4215.128418,4210.512695,4212.307617,4215.512695,4217.692383,4221.282227,4270.128418,4956.410156,4221.153809,4221.282227,0.000000,2.000000,,,,0.000000,0.000000,0.000000,0.000000,0.000000,0.000000,0.000000,0.000000,0.000000,0.000000,0.000000,0.000000,0.000000,0.000000,0.000000,0.000000,,,,,,,,,,,,,,,,,,,,,,,,,,,,,,,,,,,,,,,,,,,,,,,,,,,,,,,,,,0.007950,0.012080,0.009986,0.004579,0.011746,0.031346,0.053212,0.029646,0.029331,0.039590,0.031262,0.076725,0.014956,0.028965,0.032439,0.020022,0.012667,0.011884,0.022615,0.029185,0.019758,0.018796,0.023260,0.021169,0.024954,0.011410,0.037107,0.028097,0.019114,0.039935,0.009410,0.012641,0.006199,0.013022,0.019404,0.001378,0.000339,0.000239,0.000246,0.000133,0.034353,0.024560,0.025050,0.024575,0.037506,0.023449,0.011391,0.024625,0.019702,0.019540,0.015151,0.011942,0.017196,0.012964,0.023296,0.046308,0.057351,0.022821,0.017007,0.043643,0.063821,0.045960,0.026154,0.045524,0.030741,0.036347,0.020807,0.024345,0.025640,0.027112
1598855932.952817,4.000000,0.000000,4216.666504,4210.897461,4216.410156,4216.666504,4213.717773,4210.897461,4209.743652,4216.153809,4220.000000,4219.743652,4270.256348,4957.820313,4217.436035,4222.692383,0.000000,2.000000,,,,0.000000,0.000000,0.000000,0.000000,0.000000,0.000000,0.000000,0.000000,0.000000,0.000000,0.000000,0.000000,0.000000,0.000000,0.000000,0.000000,2.000000,0.000000,8206.000000,8093.000000,8202.000000,12231.000000,7682.000000,8578.000000,8142.000000,8115.000000,7650.000000,,,,,,,,,,,,,,,,,,,,,,,,,,,,,,,,,,,,,,,,,,,,,,,,,,,,,,,,,,,,,,,,,,,,,,,,,,,,,,,,,,,,,,,,,,,,,,,,,,,,,,,,,,,,,,,,,,,,
1598855932.960698,5.000000,0.000000,4217.563965,4211.282227,4217.307617,4217.436035,4217.436035,4212.179688,4209.102539,4216.025879,4222.179688,4221.922852,4270.897461,4958.333496,4216.153809,4221.538574,0.000000,2.000000,,,,0.000000,0.000000,0.000000,0.000000,0.000000,0.000000,0.000000,0.000000,0.000000,0.000000,0.000000,0.000000,0.000000,0.000000,0.000000,0.000000,,,,,,,,,,,,,,,,,,,,,,,,,,,,,,,,,,,,,,,,,,,,,,,,,,,,,,,,,,,,,,,,,,,,,,,,,,,,,,,,,,,,,,,,,,,,,,,,,,,,,,,,,,,,,,,,,,,,,,,,,,,,,,,
1598855932.968479,6.000000,0.000000,4217.051270,4211.794922,4216.666504,4216.153809,4216.922852,4213.589844,4212.051270,4215.897461,4216.153809,4222.307617,4271.025879,4956.282227,4219.615234,4219.743652,0.000000,2.000000,,,,0.000000,0.000000,0.000000,0.000000,0.000000,0.000000,0.000000,0.000000,0.000000,0.000000,0.000000,0.000000,0.000000,0.000000,0.000000,0.000000,3.000000,0.000000,8206.000000,8093.000000,8196.000000,12224.000000,7663.000000,8570.000000,8142.000000,8114.000000,7646.000000,,,,,,,,,,,,,,,,,,,,,,,,,,,,,,,,,,,,,,,,,,,,,,,,,,,,,,,,,,,,,,,,,,,,,,,,,,,,,,,,,,,,,,,,,,,,,,,,,,,,,,,,,,,,,,,,,,,,
1598855932.976359,7.000000,0.000000,4217.307617,4210.128418,4214.743652,4217.436035,4209.615234,4214.358887,4213.205078,4215.897461,4213.205078,4220.897461,4269.615234,4955.000000,4221.922852,4220.769043,0.000000,2.000000,,,,0.000000,0.000000,0.000000,0.000000,0.000000,0.000000,0.000000,0.000000,0.000000,0.000000,0.000000,0.000000,0.000000,0.000000,0.000000,0.000000,,,,,,,,,,,,,,,,,,,,,,,,,,,,,,,,,,,,,,,,,,,,,,,,,,,,,,,,,,,,,,,,,,,,,,,,,,,,,,,,,,,,,,,,,,,,,,,,,,,,,,,,,,,,,,,,,,,,,,,,,,,,,,,
1598855932.984240,8.000000,0.000000,4218.077148,4213.846191,4217.179688,4219.487305,4213.589844,4214.615234,4213.205078,4215.897461,4218.846191,4221.666504,4267.820313,4954.487305,4218.333496,4219.615234,0.000000,2.000000,,,,0.000000,0.000000,0.000000,0.000000,0.000000,0.000000,0.000000,0.000000,0.000000,0.000000,0.000000,0.000000,0.000000,0.000000,0.000000,0.000000,4.000000,0.000000,8210.000000,8093.000000,8207.000000,12218.000000,7670.000000,8583.000000,8140.000000,8118.000000,7647.000000,,,,,,,,,,,,,,,,,,,,,,,,,,,,,,,,,,,,,,,,,,,,,,,,,,,,,,,,,,,,,,,,,,,,,,,,,,,,,,,,,,,,,,,,,,,,,,,,,,,,,,,,,,,,,,,,,,,,
1598855932.992121,9.000000,0.000000,4216.025879,4215.000000,4219.615234,4217.436035,4216.666504,4213.717773,4213.077148,4215.897461,4219.230957,4222.948730,4270.000000,4955.000000,4216.666504,4221.025879,0.000000,2.000000,,,,0.000000,0.000000,0.000000,0.000000,0.000000,0.000000,0.000000,0.000000,0.000000,0.000000,0.000000,0.000000,0.000000,0.000000,0.000000,0.000000,,,,,,,,,,,,,,,,,,,,,,,,,,,,,,,,,,,,,,,,,,,,,,,,,,,,,,,,,,,,,,,,,,,,,,,,,,,,,,,,,,,,,,,,,,,,,,,,,,,,,,,,,,,,,,,,,,,,,,,,,,,,,,,
1598855933.000001,10.000000,0.000000,4215.384766,4210.641113,4218.077148,4216.025879,4210.641113,4214.102539,4211.794922,4215.897461,4213.717773,4221.282227,4272.051270,4955.384766,4216.153809,4222.692383,0.000000,2.000000,,,,0.000000,0.000000,0.000000,0.000000,0.000000,0.000000,0.000000,0.000000,0.000000,0.000000,0.000000,0.000000,0.000000,0.000000,0.000000,0.000000,5.000000,0.000000,8207.000000,8092.000000,8201.000000,12221.000000,7655.000000,8580.000000,8142.000000,8112.000000,7645.000000,,,,,,,,,,,,,,,,,,,,,,,,,,,,,,,,,,,,,,,,,,,,,,,,,,,,,,,,,,,,,,,,,,,,,,,,,,,,,,,,,,,,,,,,,,,,,,,,,,,,,,,,,,,,,,,,,,,,
1598855933.007882,11.000000,0.000000,4217.436035,4212.051270,4215.512695,4215.256348,4211.922852,4214.230957,4210.000000,4215.897461,4215.641113,4221.025879,4271.153809,4956.153809,4218.077148,4221.794922,0.000000,2.000000,,,,0.000000,0.000000,0.000000,0.000000,0.000000,0.000000,0.000000,0.000000,0.000000,0.000000,0.000000,0.000000,0.000000,0.000000,0.000000,0.000000,,,,,,,,,,,,,,,,,,,,,,,,,,,,,,,,,,,,,,,,,,,,,,,,,,,,,,,,,,,,,,,,,,,,,,,,,,,,,,,,,,,,,,,,,,,,,,,,,,,,,,,,,,,,,,,,,,,,,,,,,,,,,,,
1598855933.015763,12.000000,0.000000,4218.205078,4215.512695,4215.641113,4216.410156,4217.179688,4215.641113,4211.538574,4215.897461,4217.307617,4222.307617,4268.974121,4956.153809,4218.717773,4220.000000,0.000000,2.000000,,,,0.000000,0.000000,0.000000,0.000000,0.000000,0.000000,0.000000,0.000000,0.000000,0.000000,0.000000,0.000000,0.000000,0.000000,0.000000,0.000000,6.000000,0.000000,8210.000000,8093.000000,8204.000000,12227.000000,7686.000000,8585.000000,8143.000000,8115.000000,7650.000000,,,,,,,,,,,,,,,,,,,,,,,,,,,,,,,,,,,,,,,,,,,,,,,,,,,,,,,,,,,,,,,,,,,,,,,,,,,,,,,,,,,,,,,,,,,,,,,,,,,,,,,,,,,,,,,,,,,,
1598855933.023644,13.000000,0.000000,4217.692383,4215.000000,4218.589844,4217.307617,4212.820313,4215.641113,4211.153809,4215.897461,4214.358887,4220.897461,4270.000000,4958.717773,4217.692383,4221.794922,0.000000,2.000000,,,,0.000000,0.000000,0.000000,0.000000,0.000000,0.000000,0.000000,0.000000,0.000000,0.000000,0.000000,0.000000,0.000000,0.000000,0.000000,0.000000,,,,,,,,,,,,,,,,,,,,,,,,,,,,,,,,,,,,,,,,,,,,,,,,,,,,,,,,,,,,,,,,,,,,,,,,,,,,,,,,,,,,,,,,,,,,,,,,,,,,,,,,,,,,,,,,,,,,,,,,,,,,,,,
1598855933.031524,14.000000,0.000000,4217.692383,4215.128418,4218.077148,4215.512695,4211.153809,4213.205078,4210.256348,4215.897461,4218.589844,4218.846191,4270.641113,4960.384766,4218.205078,4223.717773,0.000000,2.000000,,,,0.000000,0.000000,0.000000,0.000000,0.000000,0.000000,0.000000,0.000000,0.000000,0.000000,0.000000,0.000000,0.000000,0.000000,0.000000,0.000000,7.000000,0.000000,8205.000000,8086.000000,8206.000000,12234.000000,7699.000000,8574.000000,8148.000000,8116.000000,7650.000000,,,,,,,,,,,,,,,,,,,,,,,,,,,,,,,,,,,,,,,,,,,,,,,,,,,,,,,,,,,,,,,,,,,,,,,,,,,,,,,,,,,,,,,,,,,,,,,,,,,,,,,,,,,,,,,,,,,,
1598855933.039305,15.000000,0.000000,4217.179688,4216.282227,4214.871582,4215.897461,4214.487305,4212.948730,4211.410156,4215.897461,4224.230957,4219.358887,4268.461426,4958.461426,4219.487305,4223.974121,0.000000,2.000000,,,,0.000000,0.000000,0.000000,0.000000,0.000000,0.000000,0.000000,0.000000,0.000000,0.000000,0.000000,0.000000,0.000000,0.000000,0.000000,0.000000,,,,,,,,,,,,,,,,,,,,,,,,,,,,,,,,,,,,,,,,,,,,,,,,,,,,,,,,,,,,,,,,,,,,,,,,,,,,,,,,,,,,,,,,,,,,,,,,,,,,,,,,,,,,,,,,,,,,,,,,,,,,,,,
1598855933.047185,16.000000,0.000000,4217.307617,4216.282227,4214.230957,4217.179688,4214.487305,4214.615234,4211.153809,4215.897461,4218.205078,4219.871582,4267.563965,4955.641113,4219.230957,4221.794922,0.000000,2.000000,,,,0.000000,0.000000,0.000000,0.000000,0.000000,0.000000,0.000000,0.000000,0.000000,0.000000,0.000000,0.000000,0.000000,0.000000,0.000000,0.000000,8.000000,0.000000,8207.000000,8101.000000,8202.000000,12231.000000,7673.000000,8582.000000,8139.000000,8115.000000,7649.000000,,,,,,,,,,,,,,,,,,,,,,,,,,,,,,,,,,,,,,,,,,,,,,,,,,,,,,,,,,,,,,,,,,,,,,,,,,,,,,,,,,,,,,,,,,,,,,,,,,,,,,,,,,,,,,,,,,,,
1598855933.055065,17.000000,0.000000,4218.077148,4215.897461,4218.589844,4217.051270,4216.666504,4216.666504,4209.615234,4215.897461,4212.179688,4220.000000,4270.000000,4957.307617,4218.077148,4220.256348,0.000000,2.000000,,,,0.000000,0.000000,0.000000,0.000000,0.000000,0.000000,0.000000,0.000000,0.000000,0.000000,0.000000,0.000000,0.000000,0.000000,0.000000,0.000000,,,,,,,,,,,,,,,,,,,,,,,,,,,,,,,,,,,,,,,,,,,,,,,,,,,,,,,,,,,,,,,,,,,,,,,,,,,,,,,,,,,,,,,,,,,,,,,,,,,,,,,,,,,,,,,,,,,,,,,,,,,,,,,
1598855933.062945,18.000000,0.000000,4217.820313,4216.538574,4219.230957,4216.410156,4219.102539,4215.384766,4211.153809,4215.897461,4214.871582,4221.794922,4271.794922,4957.948730,4218.589844,4222.563965,0.000000,2.000000,,,,0.000000,0.000000,0.000000,0.000000,0.000000,0.000000,0.000000,0.000000,0.000000,0.000000,0.000000,0.000000,0.000000,0.000000,0.000000,0.000000,9.000000,0.000000,8206.000000,8095.000000,8203.000000,12224.000000,7644.000000,8572.000000,8140.000000,8103.000000,7650.000000,,,,,,,,,,,,,,,,,,,,,,,,,,,,,,,,,,,,,,,,,,,,,,,,,,,,,,,,,,,,,,,,,,,,,,,,,,,,,,,,,,,,,,,,,,,,,,,,,,,,,,,,,,,,,,,,,,,,
1598855933.070825,19.000000,0.000000,4216.282227,4214.358887,4216.282227,4217.563965,4215.128418,4210.769043,4212.179688,4215.897461,4216.282227,4221.794922,4270.641113,4958.461426,4217.307617,4226.025879,0.000000,2.000000,,,,0.000000,0.000000,0.000000,0.000000,0.000000,0.000000,0.000000,0.000000,0.000000,0.000000,0.000000,0.000000,0.000000,0.000000,0.000000,0.000000,,,,,,,,,,,,,,,,,,,,,,,,,,,,,,,,,,,,,,,,,,,,,,,,,,,,,,,,,,0.007005,0.011629,0.011144,0.004410,0.010847,0.030214,0.048155,0.031347,0.031858,0.037354,0.026169,0.073781,0.016958,0.028165,0.033707,0.019550,0.015396,0.013471,0.025616,0.027730,0.019789,0.016618,0.021944,0.020127,0.023985,0.011652,0.040596,0.027970,0.019745,0.037055,0.010119,0.011192,0.004562,0.013638,0.017334,0.002689,0.000619,0.000301,0.000357,0.000232,0.039546,0.025989,0.028816,0.024912,0.036770,0.023180,0.019122,0.030624,0.021196,0.021010,0.019483,0.010499,0.015405,0.012355,0.021787,0.032818,0.046544,0.020911,0.017803,0.044228,0.071179,0.043382,0.021729,0.041609,0.032590,0.034542,0.017626,0.017393,0.027604,0.026131
1598855933.078606,20.000000,0.000000,4216.410156,4215.384766,4214.743652,4216.282227,4211.794922,4211.666504,4211.153809,4215.897461,4215.641113,4221.794922,4268.589844,4957.051270,4216.410156,4221.666504,0.000000,2.000000,,,,0.000000,0.000000,0.000000,0.000000,0.000000,0.000000,0.000000,0.000000,0.000000,0.000000,0.000000,0.000000,0.000000,0.000000,0.000000,0.000000,10.000000,0.000000,8205.000000,8097.000000,8198.000000,12226.000000,7658.000000,8571.000000,8144.000000,8115.000000,7649.000000,,,,,,,,,,,,,,,,,,,,,,,,,,,,,,,,,,,,,,,,,,,,,,,,,,,,,,,,,,,,,,,,,,,,,,,,,,,,,,,,,,,,,,,,,,,,,,,,,,,,,,,,,,,,,,,,,,,,
1598855933.086487,21.000000,0.000000,4217.051270,4217.436035,4216.538574,4215.256348,4212.820313,4213.589844,4211.025879,4215.897461,4217.436035,4221.025879,4269.358887,4955.897461,4215.512695,4220.256348,0.000000,2.000000,,,,0.000000,0.000000,0.000000,0.000000,0.000000,0.000000,0.000000,0.000000,0.000000,0.000000,0.000000,0.000000,0.000000,0.000000,0.000000,0.000000,,,,,,,,,,,,,,,,,,,,,,,,,,,,,,,,,,,,,,,,,,,,,,,,,,,,,,,,,,,,,,,,,,,,,,,,,,,,,,,,,,,,,,,,,,,,,,,,,,,,,,,,,,,,,,,,,,,,,,,,,,,,,,,
1598855933.094368,22.000000,0.000000,4215.641113,4215.256348,4213.461426,4215.897461,4213.461426,4211.794922,4211.025879,4215.897461,4220.641113,4221.538574,4272.307617,4957.051270,4217.051270,4224.871582,0.000000,2.000000,,,,0.000000,0.000000,0.000000,0.000000,0.000000,0.000000,0.000000,0.000000,0.000000,0.000000,0.000000,0.000000,0.000000,0.000000,0.000000,0.000000,11.000000,0.000000,8205.000000,8094.000000,8204.000000,12217.000000,7648.000000,8580.000000,8140.000000,8112.000000,7645.000000,,,,,,,,,,,,,,,,,,,,,,,,,,,,,,,,,,,,,,,,,,,,,,,,,,,,,,,,,,,,,,,,,,,,,,,,,,,,,,,,,,,,,,,,,,,,,,,,,,,,,,,,,,,,,,,,,,,,
1598855933.102248,23.000000,0.000000,4215.384766,4213.333496,4212.307617,4217.692383,4214.102539,4212.692383,4212.051270,4215.897461,4218.717773,4221.538574,4271.666504,4957.563965,4219.102539,4222.307617,0.000000,2.000000,,,,0.000000,0.000000,0.000000,0.000000,0.000000,0.000000,0.000000,0.000000,0.000000,0.000000,0.000000,0.000000,0.000000,0.000000,0.000000,0.000000,,,,,,,,,,,,,,,,,,,,,,,,,,,,,,,,,,,,,,,,,,,,,,,,,,,,,,,,,,,,,,,,,,,,,,,,,,,,,,,,,,,,,,,,,,,,,,,,,,,,,,,,,,,,,,,,,,,,,,,,,,,,,,,
1598855933.110129,24.000000,0.000000,4216.922852,4215.128418,4214.487305,4215.897461,4213.461426,4213.461426,4213.717773,4215.897461,4219.230957,4221.025879,4269.871582,4954.871582,4221.922852,4216.666504,0.000000,2.000000,,,,0.000000,0.000000,0.000000,0.000000,0.000000,0.000000,0.000000,0.000000,0.000000,0.000000,0.000000,0.000000,0.000000,0.000000,0.000000,0.000000,12.000000,0.000000,8209.000000,8096.000000,8207.000000,12226.000000,7677.000000,8584.000000,8143.000000,8114.000000,7650.000000,,,,,,,,,,,,,,,,,,,,,,,,,,,,,,,,,,,,,,,,,,,,,,,,,,,,,,,,,,,,,,,,,,,,,,,,,,,,,,,,,,,,,,,,,,,,,,,,,,,,,,,,,,,,,,,,,,,,
1598855933.118010,25.000000,0.000000,4216.282227,4215.384766,4215.897461,4215.897461,4212.436035,4213.589844,4212.179688,4215.897461,4221.666504,4219.743652,4270.897461,4955.897461,4219.487305,4221.282227,0.000000,2.000000,,,,0.000000,0.000000,0.000000,0.000000,0.000000,0.000000,0.000000,0.000000,0.000000,0.000000,0.000000,0.000000,0.000000,0.000000,0.000000,0.000000,,,,,,,,,,,,,,,,,,,,,,,,,,,,,,,,,,,,,,,,,,,,,,,,,,,,,,,,,,,,,,,,,,,,,,,,,,,,,,,,,,,,,,,,,,,,,,,,,,,,,,,,,,,,,,,,,,,,,,,,,,,,,,,
1598855933.125890,26.000000,0.000000,4214.487305,4214.102539,4214.102539,4217.692383,4211.922852,4214.743652,4207.948730,4215.897461,4220.256348,4218.846191,4272.051270,4957.179688,4218.205078,4225.000000,0.000000,2.000000,,,,0.000000,0.000000,0.000000,0.000000,0.000000,0.000000,0.000000,0.000000,0.000000,0.000000,0.000000,0.000000,0.000000,0.000000,0.000000,0.000000,13.000000,0.000000,8204.000000,8090.000000,8202.000000,12227.000000,7697.000000,8573.000000,8147.000000,8116.000000,7650.000000,,,,,,,,,,,,,,,,,,,,,,,,,,,,,,,,,,,,,,,,,,,,,,,,,,,,,,,,,,,,,,,,,,,,,,,,,,,,,,,,,,,,,,,,,,,,,,,,,,,,,,,,,,,,,,,,,,,,
1598855933.133771,27.000000,0.000000,4216.153809,4215.256348,4215.512695,4217.820313,4212.948730,4216.282227,4210.128418,4215.897461,4218.846191,4220.641113,4269.615234,4955.128418,4218.077148,4220.897461,0.000000,2.000000,,,,0.000000,0.000000,0.000000,0.000000,0.000000,0.000000,0.000000,0.000000,0.000000,0.000000,0.000000,0.000000,0.000000,0.000000,0.000000,0.000000,,,,,,,,,,,,,,,,,,,,,,,,,,,,,,,,,,,,,,,,,,,,,,,,,,,,,,,,,,,,,,,,,,,,,,,,,,,,,,,,,,,,,,,,,,,,,,,,,,,,,,,,,,,,,,,,,,,,,,,,,,,,,,,
